PE UV       SUBTECH     SPECTRUM    ASCII       PEDS        4.00        
   -1
Sample11.Sample.Raw.asc
20/12/09
15:24:46.00
20/12/09
15:24:46.00
Administrator

300.000000
1
Lambda 850
850L1710193
PerkinElmer UV WinLab 6.4.0.973 / 2.02.06 Lambda 800 UV/VIS, Jan 28 2016 16:58:34

0
0
2
0
0
UV/VIS
1
1
1
RBeamAtt,SBeamAtt,60mm sphere
0
0
0
0
Fix
 
0
0.2
0
0
0
 
 
 
0
 
0
319.2
0
Front
100
 
S:100 R:100
 
0
0
0
 
0
 
 
 
0
 
 
0
0
0
0
0
 
 
 
 
0
0


0
0
#HDR
-1
-1
#GR
nm
%T
1.0
0.0
750.000000
-1.500000
301
8
67.079907
-0.047185
#DATA
750.000000	66.825963
748.500000	67.079907
747.000000	66.964242
745.500000	67.065118
744.000000	67.011195
742.500000	66.983471
741.000000	66.746097
739.500000	66.886271
738.000000	66.797594
736.500000	66.663988
735.000000	66.641285
733.500000	66.657028
732.000000	66.719587
730.500000	66.593730
729.000000	66.462972
727.500000	66.382887
726.000000	66.493417
724.500000	66.413422
723.000000	66.389309
721.500000	66.400547
720.000000	66.345128
718.500000	66.345811
717.000000	66.245383
715.500000	66.173100
714.000000	66.163558
712.500000	66.130503
711.000000	66.186042
709.500000	65.998967
708.000000	66.067635
706.500000	65.974233
705.000000	65.975157
703.500000	65.858788
702.000000	65.795995
700.500000	65.865675
699.000000	65.844913
697.500000	65.747431
696.000000	65.692927
694.500000	65.688074
693.000000	65.682032
691.500000	65.571509
690.000000	65.411577
688.500000	65.530836
687.000000	65.439720
685.500000	65.347273
684.000000	65.307358
682.500000	65.307580
681.000000	65.237092
679.500000	65.227847
678.000000	65.140346
676.500000	65.036541
675.000000	65.027609
673.500000	64.962870
672.000000	64.788216
670.500000	64.837623
669.000000	64.751154
667.500000	64.619864
666.000000	64.554005
664.500000	64.480762
663.000000	64.393796
661.500000	64.291846
660.000000	64.162440
658.500000	64.128382
657.000000	64.005489
655.500000	63.918045
654.000000	63.816176
652.500000	63.709174
651.000000	63.577298
649.500000	63.477221
648.000000	63.398721
646.500000	63.295204
645.000000	63.217425
643.500000	63.055125
642.000000	62.991909
640.500000	62.870249
639.000000	62.679579
637.500000	62.536651
636.000000	62.431392
634.500000	62.314469
633.000000	62.145522
631.500000	62.036291
630.000000	61.886530
628.500000	61.746315
627.000000	61.657700
625.500000	61.474951
624.000000	61.355412
622.500000	61.215770
621.000000	61.089331
619.500000	60.920197
618.000000	60.774782
616.500000	60.639288
615.000000	60.500364
613.500000	60.401450
612.000000	60.200234
610.500000	60.058546
609.000000	59.941739
607.500000	59.771043
606.000000	59.617469
604.500000	59.420862
603.000000	59.280950
601.500000	59.144852
600.000000	59.008155
598.500000	58.859326
597.000000	58.715787
595.500000	58.566005
594.000000	58.387237
592.500000	58.270210
591.000000	58.137318
589.500000	57.995040
588.000000	57.866010
586.500000	57.696519
585.000000	57.523820
583.500000	57.407872
582.000000	57.224996
580.500000	57.093760
579.000000	56.982013
577.500000	56.842696
576.000000	56.687718
574.500000	56.532140
573.000000	56.388155
571.500000	56.253266
570.000000	56.112563
568.500000	55.960703
567.000000	55.816576
565.500000	55.680325
564.000000	55.509896
562.500000	55.361544
561.000000	55.341108
559.500000	55.327053
558.000000	55.194351
556.500000	55.083493
555.000000	54.980153
553.500000	54.836167
552.000000	54.731115
550.500000	54.629285
549.000000	54.522514
547.500000	54.426747
546.000000	54.300777
544.500000	54.185403
543.000000	54.094219
541.500000	53.977852
540.000000	53.858745
538.500000	53.760766
537.000000	53.689503
535.500000	53.626892
534.000000	53.553051
532.500000	53.456410
531.000000	53.366774
529.500000	53.276076
528.000000	53.178766
526.500000	53.106950
525.000000	53.018096
523.500000	52.890836
522.000000	52.769196
520.500000	52.634423
519.000000	52.498056
517.500000	52.329130
516.000000	52.124490
514.500000	51.903420
513.000000	51.682901
511.500000	51.447034
510.000000	51.193384
508.500000	50.948095
507.000000	50.719657
505.500000	50.529099
504.000000	50.378313
502.500000	50.274522
501.000000	50.214609
499.500000	50.164170
498.000000	50.150216
496.500000	50.162116
495.000000	50.196329
493.500000	50.232552
492.000000	50.300184
490.500000	50.378160
489.000000	50.414620
487.500000	50.457103
486.000000	50.528119
484.500000	50.610355
483.000000	50.798440
481.500000	51.030287
480.000000	51.065486
478.500000	50.860287
477.000000	50.648263
475.500000	50.492337
474.000000	50.391440
472.500000	50.242794
471.000000	50.065348
469.500000	49.874943
468.000000	49.674415
466.500000	49.445934
465.000000	49.218960
463.500000	48.974232
462.000000	48.783246
460.500000	48.637173
459.000000	48.524306
457.500000	48.420128
456.000000	48.313995
454.500000	48.262498
453.000000	48.224954
451.500000	48.175483
450.000000	48.103616
448.500000	48.043686
447.000000	47.950876
445.500000	47.872443
444.000000	47.948055
442.500000	47.967588
441.000000	47.867758
439.500000	47.696788
438.000000	47.527445
436.500000	47.348734
435.000000	47.261939
433.500000	47.111331
432.000000	46.996055
430.500000	46.845848
429.000000	46.709407
427.500000	46.508070
426.000000	46.335889
424.500000	46.189027
423.000000	46.048360
421.500000	45.815629
420.000000	45.617015
418.500000	45.425316
417.000000	45.275303
415.500000	45.115138
414.000000	44.838673
412.500000	44.646065
411.000000	44.452750
409.500000	44.202666
408.000000	44.009623
406.500000	43.762029
405.000000	43.505628
403.500000	43.290677
402.000000	43.101963
400.500000	42.867632
399.000000	42.568818
397.500000	42.346059
396.000000	42.106073
394.500000	41.871408
393.000000	41.587996
391.500000	41.289831
390.000000	41.051512
388.500000	40.882314
387.000000	40.587322
385.500000	40.273332
384.000000	40.045979
382.500000	39.679749
381.000000	39.371028
379.500000	39.026852
378.000000	38.720953
376.500000	38.770724
375.000000	38.664179
373.500000	38.047587
372.000000	37.282318
370.500000	36.481657
369.000000	35.510512
367.500000	34.465307
366.000000	33.150257
364.500000	31.603115
363.000000	29.912592
361.500000	27.823812
360.000000	25.415179
358.500000	22.772180
357.000000	19.692072
355.500000	16.544091
354.000000	13.146685
352.500000	9.824684
351.000000	6.855227
349.500000	4.367829
348.000000	2.487687
346.500000	1.231717
345.000000	0.508341
343.500000	0.184440
342.000000	0.072774
340.500000	0.032872
339.000000	0.046289
337.500000	0.032430
336.000000	0.034085
334.500000	0.029111
333.000000	0.035278
331.500000	0.044736
330.000000	0.046275
328.500000	0.036829
327.000000	0.048321
325.500000	0.047051
324.000000	0.041182
322.500000	0.048116
321.000000	0.050833
319.500000	0.029476
318.000000	-0.013794
316.500000	-0.045457
315.000000	-0.046139
313.500000	-0.047185
312.000000	-0.046296
310.500000	-0.039370
309.000000	-0.037153
307.500000	-0.027926
306.000000	-0.016556
304.500000	-0.015165
303.000000	-0.019949
301.500000	-0.021866
300.000000	-0.018160
