PE UV       SUBTECH     SPECTRUM    ASCII       PEDS        4.00        
   -1
Sample161.Sample.Raw.asc
21/01/27
12:47:26.00
21/01/27
12:47:26.00
Administrator

300.000000
1
Lambda 850
850L1710193
PerkinElmer UV WinLab 6.4.0.973 / 2.02.06 Lambda 800 UV/VIS, Jan 28 2016 16:58:34

0
0
2
0
0
UV/VIS
1
1
1
RBeamAtt,SBeamAtt,60mm sphere
0
0
0
0
Fix
 
0
0.2
0
0
0
 
 
 
0
 
0
319.2
0
Front
100
 
S:100 R:100
 
0
0
0
 
0
 
 
 
0
 
 
0
0
0
0
0
 
 
 
 
0
0


0
0
#HDR
-1
-1
#GR
nm
%T
1.0
0.0
750.000000
-1.500000
301
8
75.088109
-0.030047
#DATA
750.000000	74.674664
748.500000	75.015682
747.000000	74.955881
745.500000	75.088109
744.000000	74.807837
742.500000	74.794522
741.000000	74.902283
739.500000	75.036758
738.000000	74.806820
736.500000	74.819179
735.000000	74.784131
733.500000	74.807725
732.000000	74.755261
730.500000	74.691347
729.000000	74.702852
727.500000	74.718640
726.000000	74.741575
724.500000	74.760963
723.000000	74.701032
721.500000	74.743257
720.000000	74.619509
718.500000	74.605676
717.000000	74.560291
715.500000	74.646724
714.000000	74.629750
712.500000	74.429845
711.000000	74.571563
709.500000	74.531303
708.000000	74.480297
706.500000	74.475690
705.000000	74.483777
703.500000	74.464046
702.000000	74.497615
700.500000	74.397000
699.000000	74.441735
697.500000	74.419214
696.000000	74.413685
694.500000	74.434958
693.000000	74.363100
691.500000	74.344818
690.000000	74.123349
688.500000	74.278273
687.000000	74.292611
685.500000	74.262946
684.000000	74.267835
682.500000	74.214633
681.000000	74.200795
679.500000	74.205779
678.000000	74.252423
676.500000	74.123196
675.000000	74.061687
673.500000	74.110777
672.000000	74.069561
670.500000	74.032014
669.000000	74.036112
667.500000	74.056150
666.000000	74.043658
664.500000	73.979194
663.000000	73.941180
661.500000	73.949814
660.000000	73.860454
658.500000	73.860293
657.000000	73.840591
655.500000	73.748607
654.000000	73.759367
652.500000	73.740760
651.000000	73.693631
649.500000	73.634463
648.000000	73.576423
646.500000	73.605992
645.000000	73.575140
643.500000	73.509970
642.000000	73.433777
640.500000	73.386839
639.000000	73.334125
637.500000	73.255690
636.000000	73.219147
634.500000	73.179177
633.000000	73.149281
631.500000	73.107020
630.000000	73.092851
628.500000	72.989733
627.000000	72.961677
625.500000	72.932743
624.000000	72.851171
622.500000	72.789933
621.000000	72.749155
619.500000	72.758406
618.000000	72.715023
616.500000	72.637091
615.000000	72.569294
613.500000	72.524516
612.000000	72.454158
610.500000	72.415535
609.000000	72.339325
607.500000	72.264851
606.000000	72.211803
604.500000	72.205728
603.000000	72.168629
601.500000	72.075146
600.000000	72.005354
598.500000	71.991580
597.000000	71.997608
595.500000	71.955588
594.000000	71.841190
592.500000	71.801455
591.000000	71.713052
589.500000	71.644372
588.000000	71.638901
586.500000	71.606671
585.000000	71.508873
583.500000	71.425666
582.000000	71.374218
580.500000	71.353759
579.000000	71.339992
577.500000	71.255054
576.000000	71.173459
574.500000	71.141574
573.000000	71.054270
571.500000	71.002054
570.000000	70.965745
568.500000	70.896689
567.000000	70.822330
565.500000	70.723032
564.000000	70.650631
562.500000	70.654328
561.000000	70.752430
559.500000	70.850593
558.000000	70.845671
556.500000	70.784195
555.000000	70.733013
553.500000	70.715455
552.000000	70.703760
550.500000	70.670837
549.000000	70.645288
547.500000	70.623492
546.000000	70.580743
544.500000	70.533325
543.000000	70.517996
541.500000	70.505600
540.000000	70.493802
538.500000	70.480227
537.000000	70.484580
535.500000	70.439348
534.000000	70.391560
532.500000	70.415504
531.000000	70.443938
529.500000	70.434480
528.000000	70.406995
526.500000	70.365666
525.000000	70.358868
523.500000	70.300320
522.000000	70.219642
520.500000	70.158846
519.000000	70.067125
517.500000	69.944481
516.000000	69.779945
514.500000	69.575242
513.000000	69.343835
511.500000	69.088206
510.000000	68.844436
508.500000	68.610579
507.000000	68.335540
505.500000	68.087116
504.000000	67.871549
502.500000	67.735399
501.000000	67.656225
499.500000	67.619033
498.000000	67.572977
496.500000	67.550259
495.000000	67.564255
493.500000	67.570782
492.000000	67.686391
490.500000	67.809902
489.000000	67.926750
487.500000	68.056585
486.000000	68.206791
484.500000	68.381864
483.000000	68.745836
481.500000	69.154395
480.000000	69.320767
478.500000	69.146324
477.000000	68.999363
475.500000	68.891501
474.000000	68.786927
472.500000	68.662788
471.000000	68.522631
469.500000	68.349613
468.000000	68.153012
466.500000	67.869828
465.000000	67.620992
463.500000	67.377420
462.000000	67.135162
460.500000	66.932989
459.000000	66.815776
457.500000	66.693973
456.000000	66.597710
454.500000	66.541672
453.000000	66.520748
451.500000	66.510138
450.000000	66.460676
448.500000	66.398200
447.000000	66.341253
445.500000	66.328156
444.000000	66.587350
442.500000	66.721681
441.000000	66.679655
439.500000	66.590247
438.000000	66.529859
436.500000	66.361822
435.000000	66.316101
433.500000	66.275908
432.000000	66.188241
430.500000	66.171562
429.000000	66.094982
427.500000	65.952742
426.000000	65.874189
424.500000	65.849984
423.000000	65.786099
421.500000	65.776748
420.000000	65.654983
418.500000	65.616551
417.000000	65.499195
415.500000	65.399801
414.000000	65.371452
412.500000	65.270783
411.000000	65.258182
409.500000	65.111944
408.000000	65.061046
406.500000	64.989250
405.000000	64.862165
403.500000	64.856135
402.000000	64.701385
400.500000	64.648303
399.000000	64.584507
397.500000	64.543277
396.000000	64.402750
394.500000	64.326540
393.000000	64.157624
391.500000	64.081581
390.000000	64.050014
388.500000	63.920784
387.000000	63.838944
385.500000	63.620747
384.000000	63.530515
382.500000	63.321185
381.000000	63.134365
379.500000	62.948301
378.000000	62.812832
376.500000	63.383767
375.000000	63.597407
373.500000	62.882424
372.000000	62.079078
370.500000	61.237211
369.000000	60.227309
367.500000	59.071839
366.000000	57.772123
364.500000	56.084725
363.000000	54.311808
361.500000	52.040506
360.000000	49.296446
358.500000	46.148145
357.000000	42.424273
355.500000	38.217248
354.000000	33.570782
352.500000	28.639184
351.000000	23.470909
349.500000	18.442383
348.000000	13.736714
346.500000	9.583494
345.000000	6.128331
343.500000	3.566473
342.000000	1.837313
340.500000	0.822912
339.000000	0.319452
337.500000	0.108965
336.000000	0.055662
334.500000	0.041681
333.000000	0.041184
331.500000	0.044572
330.000000	0.047947
328.500000	0.045318
327.000000	0.044729
325.500000	0.050017
324.000000	0.051395
322.500000	0.045394
321.000000	0.055834
319.500000	0.045240
318.000000	-0.000472
316.500000	-0.027946
315.000000	-0.028888
313.500000	-0.030047
312.000000	-0.029153
310.500000	-0.022565
309.000000	-0.017682
307.500000	-0.014301
306.000000	-0.007308
304.500000	-0.007131
303.000000	-0.013708
301.500000	-0.009814
300.000000	-0.011935
