PE UV       SUBTECH     SPECTRUM    ASCII       PEDS        4.00        
   -1
Sample323.Sample.Processed.asc
21/03/25
15:46:59.00
21/03/25
15:46:59.00
Administrator

300.000000
1
Lambda 850
850L1710193
PerkinElmer UV WinLab 6.4.0.973 / 2.02.06 Lambda 800 UV/VIS, Jan 28 2016 16:58:34

0
0
2
0
0
UV/VIS
1
1
1
RBeamAtt,SBeamAtt,60mm sphere
0
0
0
0
Fix
 
0
0.2
0
0
0
 
 
 
0
 
0
340
0
Front
100
 
S:100 R:100
 
0
0
0
 
0
 
 
 
0
 
 
0
0
0
0
0
 
 
 
 
0
0


0
0
#HDR
-1
-1
#GR
nm
%T
1.0
0.0
750.000000
-1.500000
301
8
71.332045
-0.036132
#DATA
750.000000	71.013441
748.500000	71.332045
747.000000	71.298589
745.500000	71.251262
744.000000	71.187249
742.500000	71.098529
741.000000	71.155070
739.500000	71.100161
738.000000	71.089299
736.500000	71.258917
735.000000	71.119179
733.500000	70.919958
732.000000	70.877658
730.500000	70.903333
729.000000	70.721249
727.500000	70.759243
726.000000	70.784984
724.500000	70.819871
723.000000	70.804979
721.500000	70.826235
720.000000	70.702114
718.500000	70.678406
717.000000	70.612558
715.500000	70.630602
714.000000	70.558893
712.500000	70.453057
711.000000	70.378023
709.500000	70.456798
708.000000	70.286095
706.500000	70.271196
705.000000	70.336031
703.500000	70.284722
702.000000	70.287904
700.500000	70.198887
699.000000	70.162674
697.500000	70.154801
696.000000	70.109487
694.500000	70.054128
693.000000	69.977208
691.500000	69.818573
690.000000	69.703533
688.500000	69.924749
687.000000	69.880546
685.500000	69.769790
684.000000	69.746107
682.500000	69.696560
681.000000	69.523571
679.500000	69.563559
678.000000	69.456004
676.500000	69.347302
675.000000	69.373506
673.500000	69.306588
672.000000	69.259863
670.500000	69.219081
669.000000	69.086177
667.500000	68.982174
666.000000	68.923198
664.500000	68.795891
663.000000	68.696154
661.500000	68.644818
660.000000	68.544115
658.500000	68.371207
657.000000	68.309117
655.500000	68.217899
654.000000	68.087831
652.500000	67.953224
651.000000	67.826080
649.500000	67.693471
648.000000	67.573715
646.500000	67.533430
645.000000	67.328497
643.500000	67.236500
642.000000	67.115167
640.500000	67.000945
639.000000	66.885620
637.500000	66.742745
636.000000	66.584779
634.500000	66.468210
633.000000	66.298738
631.500000	66.164546
630.000000	66.033225
628.500000	65.894966
627.000000	65.732055
625.500000	65.594365
624.000000	65.458070
622.500000	65.279157
621.000000	65.161708
619.500000	64.981571
618.000000	64.791993
616.500000	64.612138
615.000000	64.454005
613.500000	64.298634
612.000000	64.153795
610.500000	63.926005
609.000000	63.763791
607.500000	63.661541
606.000000	63.474391
604.500000	63.293981
603.000000	63.142954
601.500000	62.933841
600.000000	62.738211
598.500000	62.601844
597.000000	62.418232
595.500000	62.232667
594.000000	62.093687
592.500000	61.941631
591.000000	61.750667
589.500000	61.566704
588.000000	61.379541
586.500000	61.138557
585.000000	61.000700
583.500000	60.877356
582.000000	60.678341
580.500000	60.470543
579.000000	60.285153
577.500000	60.076316
576.000000	59.886140
574.500000	59.750480
573.000000	59.563556
571.500000	59.351739
570.000000	59.162867
568.500000	58.994438
567.000000	58.826938
565.500000	58.614871
564.000000	58.392258
562.500000	58.208219
561.000000	58.196145
559.500000	58.162268
558.000000	57.964054
556.500000	57.769253
555.000000	57.612823
553.500000	57.452086
552.000000	57.257615
550.500000	57.067972
549.000000	56.893770
547.500000	56.731368
546.000000	56.575718
544.500000	56.416103
543.000000	56.255829
541.500000	56.121422
540.000000	55.963263
538.500000	55.796690
537.000000	55.659604
535.500000	55.531844
534.000000	55.380211
532.500000	55.212657
531.000000	55.054366
529.500000	54.885151
528.000000	54.751095
526.500000	54.618019
525.000000	54.452651
523.500000	54.277328
522.000000	54.103878
520.500000	53.937161
519.000000	53.761439
517.500000	53.576489
516.000000	53.376435
514.500000	53.162044
513.000000	52.918056
511.500000	52.657813
510.000000	52.428484
508.500000	52.210009
507.000000	52.000436
505.500000	51.884168
504.000000	51.805213
502.500000	51.761224
501.000000	51.741055
499.500000	51.755066
498.000000	51.826410
496.500000	51.973835
495.000000	52.084734
493.500000	52.195067
492.000000	52.255448
490.500000	52.340802
489.000000	52.390197
487.500000	52.443406
486.000000	52.466011
484.500000	52.491149
483.000000	52.543154
481.500000	52.586518
480.000000	52.492964
478.500000	52.176731
477.000000	51.840095
475.500000	51.646117
474.000000	51.464012
472.500000	51.262072
471.000000	51.078386
469.500000	50.836959
468.000000	50.625234
466.500000	50.396411
465.000000	50.155029
463.500000	49.986579
462.000000	49.838644
460.500000	49.707238
459.000000	49.629026
457.500000	49.602702
456.000000	49.564360
454.500000	49.555589
453.000000	49.581380
451.500000	49.562392
450.000000	49.581987
448.500000	49.597210
447.000000	49.585381
445.500000	49.602377
444.000000	49.721859
442.500000	49.749875
441.000000	49.644781
439.500000	49.515678
438.000000	49.401400
436.500000	49.342759
435.000000	49.209698
433.500000	49.122630
432.000000	49.037711
430.500000	48.947746
429.000000	48.843331
427.500000	48.710542
426.000000	48.661932
424.500000	48.538726
423.000000	48.467855
421.500000	48.351243
420.000000	48.244492
418.500000	48.187092
417.000000	48.044578
415.500000	47.990249
414.000000	47.914563
412.500000	47.823713
411.000000	47.719370
409.500000	47.595858
408.000000	47.472358
406.500000	47.395722
405.000000	47.371390
403.500000	47.249032
402.000000	47.215997
400.500000	47.122044
399.000000	47.022101
397.500000	46.960478
396.000000	46.834213
394.500000	46.736868
393.000000	46.692094
391.500000	46.559946
390.000000	46.421621
388.500000	46.324032
387.000000	46.223643
385.500000	46.061102
384.000000	45.957256
382.500000	45.773523
381.000000	45.572319
379.500000	45.342303
378.000000	45.243145
376.500000	45.452446
375.000000	45.564160
373.500000	44.827435
372.000000	44.183444
370.500000	43.339411
369.000000	42.416579
367.500000	41.218648
366.000000	39.875294
364.500000	38.330079
363.000000	36.392859
361.500000	34.122473
360.000000	31.521679
358.500000	28.441036
357.000000	25.128576
355.500000	21.425978
354.000000	17.558023
352.500000	13.783065
351.000000	10.273429
349.500000	7.265334
348.000000	4.778200
346.500000	2.984452
345.000000	1.717734
343.500000	0.934764
342.000000	0.466702
340.500000	0.209965
339.000000	0.069502
337.500000	0.008824
336.000000	-0.014963
334.500000	-0.015093
333.000000	-0.020752
331.500000	-0.010331
330.000000	-0.016254
328.500000	-0.015302
327.000000	-0.013710
325.500000	-0.015673
324.000000	-0.005606
322.500000	-0.018696
321.000000	-0.020965
319.500000	-0.011132
318.000000	0.004803
316.500000	-0.025957
315.000000	-0.028917
313.500000	-0.036132
312.000000	-0.029596
310.500000	-0.028589
309.000000	-0.020134
307.500000	-0.011446
306.000000	-0.010153
304.500000	-0.004082
303.000000	-0.003613
301.500000	-0.005236
300.000000	-0.011435
