PE UV       SUBTECH     SPECTRUM    ASCII       PEDS        4.00        
   -1
Sample240.Sample.Raw.asc
21/02/10
10:36:23.00
21/02/10
10:36:23.00
Administrator

300.000000
1
Lambda 850
850L1710193
PerkinElmer UV WinLab 6.4.0.973 / 2.02.06 Lambda 800 UV/VIS, Jan 28 2016 16:58:34

0
0
2
0
0
UV/VIS
1
1
1
RBeamAtt,SBeamAtt,60mm sphere
0
0
0
0
Fix
 
0
0.2
0
0
0
 
 
 
0
 
0
319.2
0
Front
100
 
S:100 R:100
 
0
0
0
 
0
 
 
 
0
 
 
0
0
0
0
0
 
 
 
 
0
0


0
0
#HDR
-1
-1
#GR
nm
%T
1.0
0.0
750.000000
-1.500000
301
8
69.043879
-0.032246
#DATA
750.000000	68.895737
748.500000	69.043879
747.000000	68.995763
745.500000	69.032178
744.000000	68.978857
742.500000	68.874438
741.000000	68.715097
739.500000	68.854931
738.000000	68.840216
736.500000	68.736623
735.000000	68.826225
733.500000	68.618411
732.000000	68.634859
730.500000	68.683337
729.000000	68.601279
727.500000	68.605633
726.000000	68.506454
724.500000	68.430028
723.000000	68.442253
721.500000	68.420851
720.000000	68.415082
718.500000	68.342023
717.000000	68.300244
715.500000	68.315483
714.000000	68.254981
712.500000	68.187833
711.000000	68.182702
709.500000	68.098636
708.000000	68.114364
706.500000	68.092091
705.000000	68.122336
703.500000	68.061060
702.000000	67.918865
700.500000	68.005331
699.000000	68.017650
697.500000	67.951051
696.000000	67.860474
694.500000	67.919233
693.000000	67.766611
691.500000	67.698256
690.000000	67.536998
688.500000	67.653740
687.000000	67.677747
685.500000	67.652335
684.000000	67.615178
682.500000	67.566723
681.000000	67.477022
679.500000	67.436787
678.000000	67.274291
676.500000	67.197550
675.000000	67.155689
673.500000	67.104480
672.000000	67.047438
670.500000	67.001612
669.000000	66.868125
667.500000	66.797646
666.000000	66.697089
664.500000	66.656742
663.000000	66.555312
661.500000	66.410182
660.000000	66.319555
658.500000	66.233711
657.000000	66.105923
655.500000	66.050746
654.000000	65.873630
652.500000	65.771321
651.000000	65.653090
649.500000	65.536357
648.000000	65.394254
646.500000	65.247039
645.000000	65.157916
643.500000	65.071371
642.000000	64.892661
640.500000	64.742183
639.000000	64.598623
637.500000	64.513647
636.000000	64.329087
634.500000	64.176031
633.000000	64.044029
631.500000	63.899589
630.000000	63.729778
628.500000	63.575724
627.000000	63.439055
625.500000	63.306287
624.000000	63.162111
622.500000	62.990895
621.000000	62.784150
619.500000	62.617234
618.000000	62.418905
616.500000	62.302685
615.000000	62.173024
613.500000	61.987392
612.000000	61.841799
610.500000	61.678976
609.000000	61.508657
607.500000	61.323416
606.000000	61.174681
604.500000	61.015891
603.000000	60.823911
601.500000	60.654505
600.000000	60.481769
598.500000	60.276151
597.000000	60.138517
595.500000	59.969530
594.000000	59.775238
592.500000	59.593452
591.000000	59.445224
589.500000	59.290632
588.000000	59.131659
586.500000	58.943278
585.000000	58.748016
583.500000	58.592862
582.000000	58.425090
580.500000	58.256345
579.000000	58.117348
577.500000	57.949093
576.000000	57.767733
574.500000	57.609070
573.000000	57.432379
571.500000	57.282252
570.000000	57.112207
568.500000	56.928133
567.000000	56.766280
565.500000	56.616748
564.000000	56.421560
562.500000	56.259168
561.000000	56.217702
559.500000	56.133910
558.000000	56.010968
556.500000	55.885124
555.000000	55.733436
553.500000	55.564053
552.000000	55.389963
550.500000	55.244356
549.000000	55.098405
547.500000	54.963586
546.000000	54.838835
544.500000	54.693608
543.000000	54.551184
541.500000	54.420586
540.000000	54.297237
538.500000	54.171862
537.000000	54.062275
535.500000	53.926246
534.000000	53.782609
532.500000	53.649025
531.000000	53.526867
529.500000	53.400865
528.000000	53.288726
526.500000	53.172245
525.000000	53.022591
523.500000	52.884337
522.000000	52.748487
520.500000	52.611410
519.000000	52.469857
517.500000	52.321512
516.000000	52.136038
514.500000	51.957397
513.000000	51.762126
511.500000	51.552156
510.000000	51.378469
508.500000	51.194306
507.000000	51.021982
505.500000	50.925810
504.000000	50.865937
502.500000	50.879552
501.000000	50.947379
499.500000	51.051726
498.000000	51.175681
496.500000	51.328653
495.000000	51.493128
493.500000	51.670542
492.000000	51.832274
490.500000	51.947230
489.000000	52.049612
487.500000	52.106392
486.000000	52.174865
484.500000	52.257435
483.000000	52.342659
481.500000	52.389709
480.000000	52.278648
478.500000	51.972152
477.000000	51.715462
475.500000	51.514276
474.000000	51.347450
472.500000	51.199205
471.000000	51.029296
469.500000	50.857472
468.000000	50.690634
466.500000	50.497866
465.000000	50.327634
463.500000	50.155419
462.000000	50.051529
460.500000	50.008812
459.000000	50.014451
457.500000	50.001044
456.000000	50.055166
454.500000	50.072991
453.000000	50.115511
451.500000	50.152588
450.000000	50.237324
448.500000	50.329954
447.000000	50.338324
445.500000	50.445635
444.000000	50.620754
442.500000	50.645265
441.000000	50.544229
439.500000	50.449908
438.000000	50.420165
436.500000	50.340396
435.000000	50.275501
433.500000	50.201718
432.000000	50.126143
430.500000	50.042120
429.000000	49.989051
427.500000	49.932262
426.000000	49.867447
424.500000	49.858955
423.000000	49.749129
421.500000	49.659803
420.000000	49.575244
418.500000	49.512130
417.000000	49.456524
415.500000	49.377445
414.000000	49.301557
412.500000	49.193595
411.000000	49.104240
409.500000	49.088220
408.000000	49.011509
406.500000	48.892406
405.000000	48.823292
403.500000	48.739309
402.000000	48.712501
400.500000	48.661331
399.000000	48.587777
397.500000	48.484365
396.000000	48.396933
394.500000	48.317575
393.000000	48.252719
391.500000	48.190085
390.000000	48.126191
388.500000	48.038833
387.000000	47.943734
385.500000	47.776339
384.000000	47.636929
382.500000	47.556897
381.000000	47.376522
379.500000	47.115213
378.000000	47.079331
376.500000	47.520055
375.000000	47.495592
373.500000	46.773323
372.000000	46.089631
370.500000	45.340257
369.000000	44.374945
367.500000	43.308649
366.000000	41.981126
364.500000	40.312066
363.000000	38.441580
361.500000	36.066967
360.000000	33.372126
358.500000	30.213025
357.000000	26.663398
355.500000	22.844808
354.000000	18.716372
352.500000	14.748709
351.000000	10.952437
349.500000	7.688871
348.000000	5.034062
346.500000	3.110438
345.000000	1.794415
343.500000	0.970965
342.000000	0.479393
340.500000	0.222990
339.000000	0.100944
337.500000	0.052526
336.000000	0.035167
334.500000	0.035381
333.000000	0.039142
331.500000	0.040226
330.000000	0.037136
328.500000	0.044433
327.000000	0.046589
325.500000	0.045950
324.000000	0.042294
322.500000	0.052840
321.000000	0.048389
319.500000	0.044363
318.000000	-0.007464
316.500000	-0.024811
315.000000	-0.026754
313.500000	-0.032246
312.000000	-0.027586
310.500000	-0.024893
309.000000	-0.018568
307.500000	-0.015665
306.000000	-0.008844
304.500000	-0.005336
303.000000	-0.005053
301.500000	-0.014896
300.000000	-0.007833
