PE UV       SUBTECH     SPECTRUM    ASCII       PEDS        4.00        
   -1
Sample69.Sample.Raw.asc
20/12/15
17:13:32.00
20/12/15
17:13:32.00
Administrator

300.000000
1
Lambda 850
850L1710193
PerkinElmer UV WinLab 6.4.0.973 / 2.02.06 Lambda 800 UV/VIS, Jan 28 2016 16:58:34

0
0
2
0
0
UV/VIS
1
1
1
RBeamAtt,SBeamAtt,60mm sphere
0
0
0
0
Fix
 
0
0.2
0
0
0
 
 
 
0
 
0
319.2
0
Front
100
 
S:100 R:100
 
0
0
0
 
0
 
 
 
0
 
 
0
0
0
0
0
 
 
 
 
0
0


0
0
#HDR
-1
-1
#GR
nm
%T
1.0
0.0
750.000000
-1.500000
301
8
74.213557
-0.032492
#DATA
750.000000	73.858198
748.500000	74.172013
747.000000	74.213557
745.500000	74.117757
744.000000	74.189555
742.500000	74.147274
741.000000	74.066212
739.500000	74.101314
738.000000	74.203752
736.500000	74.148750
735.000000	74.119854
733.500000	74.134512
732.000000	74.159756
730.500000	74.125043
729.000000	74.046676
727.500000	73.976854
726.000000	74.024175
724.500000	74.193624
723.000000	74.014964
721.500000	73.924490
720.000000	74.033352
718.500000	74.076025
717.000000	73.916258
715.500000	73.990504
714.000000	74.005170
712.500000	73.879154
711.000000	74.012532
709.500000	73.898268
708.000000	73.979808
706.500000	73.973049
705.000000	73.975059
703.500000	73.938128
702.000000	73.864991
700.500000	73.772560
699.000000	73.990375
697.500000	73.820831
696.000000	73.881086
694.500000	73.814559
693.000000	73.789138
691.500000	73.769548
690.000000	73.650521
688.500000	73.853356
687.000000	73.837899
685.500000	73.851615
684.000000	73.815651
682.500000	73.758359
681.000000	73.830151
679.500000	73.799831
678.000000	73.748700
676.500000	73.678863
675.000000	73.715781
673.500000	73.652019
672.000000	73.598724
670.500000	73.663982
669.000000	73.642430
667.500000	73.705010
666.000000	73.590343
664.500000	73.601837
663.000000	73.654007
661.500000	73.627367
660.000000	73.573202
658.500000	73.541790
657.000000	73.499086
655.500000	73.486284
654.000000	73.508770
652.500000	73.504974
651.000000	73.549411
649.500000	73.542492
648.000000	73.479956
646.500000	73.485161
645.000000	73.404683
643.500000	73.405544
642.000000	73.397868
640.500000	73.359693
639.000000	73.371907
637.500000	73.372769
636.000000	73.342759
634.500000	73.348397
633.000000	73.300049
631.500000	73.291770
630.000000	73.315482
628.500000	73.311160
627.000000	73.250205
625.500000	73.249920
624.000000	73.271623
622.500000	73.192532
621.000000	73.194861
619.500000	73.233675
618.000000	73.191543
616.500000	73.118819
615.000000	73.099774
613.500000	73.122133
612.000000	73.094634
610.500000	73.097586
609.000000	73.073862
607.500000	73.003654
606.000000	73.001089
604.500000	72.950835
603.000000	72.932760
601.500000	72.960734
600.000000	72.932792
598.500000	72.911902
597.000000	72.934166
595.500000	72.878436
594.000000	72.869928
592.500000	72.870833
591.000000	72.808463
589.500000	72.815454
588.000000	72.787591
586.500000	72.742723
585.000000	72.770107
583.500000	72.714564
582.000000	72.668333
580.500000	72.638938
579.000000	72.650502
577.500000	72.644899
576.000000	72.610443
574.500000	72.598667
573.000000	72.585423
571.500000	72.549672
570.000000	72.511950
568.500000	72.490128
567.000000	72.401315
565.500000	72.351857
564.000000	72.305337
562.500000	72.308274
561.000000	72.443101
559.500000	72.554687
558.000000	72.523727
556.500000	72.502361
555.000000	72.487890
553.500000	72.499789
552.000000	72.462338
550.500000	72.419154
549.000000	72.392571
547.500000	72.356949
546.000000	72.388416
544.500000	72.375603
543.000000	72.322258
541.500000	72.311232
540.000000	72.304254
538.500000	72.307556
537.000000	72.281303
535.500000	72.248661
534.000000	72.247044
532.500000	72.251409
531.000000	72.238221
529.500000	72.199393
528.000000	72.173958
526.500000	72.148923
525.000000	72.114646
523.500000	72.042883
522.000000	71.975185
520.500000	71.915216
519.000000	71.787698
517.500000	71.661000
516.000000	71.500934
514.500000	71.292747
513.000000	71.097135
511.500000	70.872748
510.000000	70.626383
508.500000	70.390665
507.000000	70.167218
505.500000	70.007891
504.000000	69.851660
502.500000	69.785075
501.000000	69.812538
499.500000	69.889501
498.000000	69.945720
496.500000	70.042547
495.000000	70.173052
493.500000	70.277553
492.000000	70.474602
490.500000	70.599324
489.000000	70.756909
487.500000	70.950689
486.000000	71.052621
484.500000	71.171519
483.000000	71.444353
481.500000	71.800061
480.000000	71.851455
478.500000	71.582743
477.000000	71.301754
475.500000	71.131232
474.000000	70.984501
472.500000	70.864350
471.000000	70.690762
469.500000	70.494963
468.000000	70.233362
466.500000	69.962193
465.000000	69.715121
463.500000	69.458307
462.000000	69.246201
460.500000	69.157218
459.000000	69.051017
457.500000	68.978621
456.000000	68.967936
454.500000	69.013090
453.000000	68.969968
451.500000	68.989202
450.000000	69.063363
448.500000	69.083532
447.000000	69.051498
445.500000	69.133536
444.000000	69.370199
442.500000	69.512414
441.000000	69.481575
439.500000	69.402558
438.000000	69.261366
436.500000	69.181129
435.000000	69.077639
433.500000	69.014280
432.000000	69.066003
430.500000	68.961843
429.000000	68.916175
427.500000	68.862071
426.000000	68.740538
424.500000	68.620771
423.000000	68.551933
421.500000	68.448394
420.000000	68.347021
418.500000	68.271148
417.000000	68.171141
415.500000	68.024866
414.000000	68.040426
412.500000	67.852057
411.000000	67.807223
409.500000	67.673854
408.000000	67.593695
406.500000	67.511349
405.000000	67.345772
403.500000	67.293392
402.000000	67.125650
400.500000	66.931863
399.000000	66.860360
397.500000	66.686340
396.000000	66.553963
394.500000	66.406325
393.000000	66.223281
391.500000	66.111089
390.000000	65.948433
388.500000	65.742254
387.000000	65.525310
385.500000	65.323956
384.000000	65.006370
382.500000	64.683209
381.000000	64.352852
379.500000	63.939066
378.000000	63.788734
376.500000	64.102952
375.000000	64.178034
373.500000	62.999709
372.000000	61.908918
370.500000	60.538380
369.000000	59.052706
367.500000	57.431622
366.000000	55.438061
364.500000	52.971100
363.000000	50.188944
361.500000	46.807609
360.000000	43.001016
358.500000	38.724652
357.000000	33.834037
355.500000	28.665685
354.000000	23.313833
352.500000	18.093649
351.000000	13.267579
349.500000	9.174243
348.000000	5.919358
346.500000	3.612909
345.000000	2.038495
343.500000	1.070260
342.000000	0.526345
340.500000	0.230565
339.000000	0.098916
337.500000	0.042062
336.000000	0.028802
334.500000	0.037587
333.000000	0.041940
331.500000	0.029424
330.000000	0.039021
328.500000	0.038542
327.000000	0.035193
325.500000	0.043898
324.000000	0.043993
322.500000	0.044931
321.000000	0.056658
319.500000	0.040219
318.000000	0.000282
316.500000	-0.032492
315.000000	-0.031278
313.500000	-0.030935
312.000000	-0.029550
310.500000	-0.025518
309.000000	-0.029900
307.500000	-0.019381
306.000000	-0.007486
304.500000	-0.007494
303.000000	-0.012173
301.500000	-0.016360
300.000000	-0.011507
