PE UV       SUBTECH     SPECTRUM    ASCII       PEDS        4.00        
   -1
Sample71.Sample.Raw.asc
20/12/15
17:21:50.00
20/12/15
17:21:50.00
Administrator

300.000000
1
Lambda 850
850L1710193
PerkinElmer UV WinLab 6.4.0.973 / 2.02.06 Lambda 800 UV/VIS, Jan 28 2016 16:58:34

0
0
2
0
0
UV/VIS
1
1
1
RBeamAtt,SBeamAtt,60mm sphere
0
0
0
0
Fix
 
0
0.2
0
0
0
 
 
 
0
 
0
319.2
0
Front
100
 
S:100 R:100
 
0
0
0
 
0
 
 
 
0
 
 
0
0
0
0
0
 
 
 
 
0
0


0
0
#HDR
-1
-1
#GR
nm
%T
1.0
0.0
750.000000
-1.500000
301
8
74.296283
-0.019819
#DATA
750.000000	73.735545
748.500000	74.041202
747.000000	74.172098
745.500000	74.162642
744.000000	74.296283
742.500000	74.097908
741.000000	74.117259
739.500000	74.044863
738.000000	74.248266
736.500000	74.019711
735.000000	74.033235
733.500000	73.987372
732.000000	73.944866
730.500000	74.108184
729.000000	74.025440
727.500000	73.900143
726.000000	73.950877
724.500000	74.136266
723.000000	73.956226
721.500000	73.908507
720.000000	73.869927
718.500000	73.921352
717.000000	73.945591
715.500000	73.851602
714.000000	73.923242
712.500000	73.799192
711.000000	74.027773
709.500000	73.768712
708.000000	73.823773
706.500000	73.836071
705.000000	73.841891
703.500000	73.860088
702.000000	73.769751
700.500000	73.749567
699.000000	73.777212
697.500000	73.671606
696.000000	73.732173
694.500000	73.748697
693.000000	73.653079
691.500000	73.662875
690.000000	73.492066
688.500000	73.700113
687.000000	73.684921
685.500000	73.682642
684.000000	73.657145
682.500000	73.664972
681.000000	73.668236
679.500000	73.632007
678.000000	73.618200
676.500000	73.546297
675.000000	73.645034
673.500000	73.558041
672.000000	73.594132
670.500000	73.556103
669.000000	73.537088
667.500000	73.604919
666.000000	73.516985
664.500000	73.504747
663.000000	73.553035
661.500000	73.505455
660.000000	73.404635
658.500000	73.434154
657.000000	73.452438
655.500000	73.382365
654.000000	73.384706
652.500000	73.355856
651.000000	73.363633
649.500000	73.389866
648.000000	73.361942
646.500000	73.333564
645.000000	73.291056
643.500000	73.332659
642.000000	73.309881
640.500000	73.232831
639.000000	73.281454
637.500000	73.210237
636.000000	73.194295
634.500000	73.209774
633.000000	73.147733
631.500000	73.159173
630.000000	73.160678
628.500000	73.185600
627.000000	73.124821
625.500000	73.146354
624.000000	73.144662
622.500000	73.085967
621.000000	73.057889
619.500000	73.063070
618.000000	73.056094
616.500000	73.018675
615.000000	72.987727
613.500000	72.997528
612.000000	72.967498
610.500000	72.984100
609.000000	72.945520
607.500000	72.880480
606.000000	72.860119
604.500000	72.808495
603.000000	72.820472
601.500000	72.850036
600.000000	72.804341
598.500000	72.791766
597.000000	72.795507
595.500000	72.769591
594.000000	72.733342
592.500000	72.714691
591.000000	72.665994
589.500000	72.666275
588.000000	72.666887
586.500000	72.636628
585.000000	72.619980
583.500000	72.559004
582.000000	72.548520
580.500000	72.549494
579.000000	72.517898
577.500000	72.479027
576.000000	72.444171
574.500000	72.404411
573.000000	72.403908
571.500000	72.418754
570.000000	72.361111
568.500000	72.317037
567.000000	72.261421
565.500000	72.199765
564.000000	72.139603
562.500000	72.128733
561.000000	72.282188
559.500000	72.399523
558.000000	72.373014
556.500000	72.376075
555.000000	72.337841
553.500000	72.275998
552.000000	72.293081
550.500000	72.292425
549.000000	72.238894
547.500000	72.210545
546.000000	72.215438
544.500000	72.215993
543.000000	72.183671
541.500000	72.141309
540.000000	72.118981
538.500000	72.123736
537.000000	72.133814
535.500000	72.113326
534.000000	72.097261
532.500000	72.111836
531.000000	72.083871
529.500000	72.063106
528.000000	72.015970
526.500000	71.981771
525.000000	71.974365
523.500000	71.910598
522.000000	71.842964
520.500000	71.764708
519.000000	71.635877
517.500000	71.508105
516.000000	71.346378
514.500000	71.152982
513.000000	70.927328
511.500000	70.695449
510.000000	70.465884
508.500000	70.227548
507.000000	70.005035
505.500000	69.846351
504.000000	69.683619
502.500000	69.604457
501.000000	69.609624
499.500000	69.694232
498.000000	69.754774
496.500000	69.780333
495.000000	69.937144
493.500000	70.130138
492.000000	70.303928
490.500000	70.396531
489.000000	70.518072
487.500000	70.715479
486.000000	70.802744
484.500000	70.944567
483.000000	71.236590
481.500000	71.588225
480.000000	71.659103
478.500000	71.391902
477.000000	71.087089
475.500000	70.947623
474.000000	70.812604
472.500000	70.650458
471.000000	70.469889
469.500000	70.283545
468.000000	70.022207
466.500000	69.804330
465.000000	69.534303
463.500000	69.291626
462.000000	69.053910
460.500000	68.919133
459.000000	68.821132
457.500000	68.740752
456.000000	68.734661
454.500000	68.750260
453.000000	68.743619
451.500000	68.780550
450.000000	68.804224
448.500000	68.869734
447.000000	68.848144
445.500000	68.842993
444.000000	69.119789
442.500000	69.254836
441.000000	69.196183
439.500000	69.085441
438.000000	68.956058
436.500000	68.931756
435.000000	68.839276
433.500000	68.790578
432.000000	68.697533
430.500000	68.675763
429.000000	68.604272
427.500000	68.465106
426.000000	68.389777
424.500000	68.350261
423.000000	68.233269
421.500000	68.115196
420.000000	68.083785
418.500000	67.939484
417.000000	67.849607
415.500000	67.741106
414.000000	67.683814
412.500000	67.552036
411.000000	67.535153
409.500000	67.359226
408.000000	67.185757
406.500000	67.104562
405.000000	67.052148
403.500000	66.896248
402.000000	66.788455
400.500000	66.623257
399.000000	66.411229
397.500000	66.377985
396.000000	66.212243
394.500000	66.058475
393.000000	65.857248
391.500000	65.647669
390.000000	65.474179
388.500000	65.291968
387.000000	65.139001
385.500000	64.829748
384.000000	64.552885
382.500000	64.225936
381.000000	63.801257
379.500000	63.452975
378.000000	63.146612
376.500000	63.657645
375.000000	63.547763
373.500000	62.557528
372.000000	61.348672
370.500000	60.036875
369.000000	58.580389
367.500000	56.773354
366.000000	54.890462
364.500000	52.402743
363.000000	49.615118
361.500000	46.335975
360.000000	42.438419
358.500000	38.222236
357.000000	33.257056
355.500000	28.138034
354.000000	22.792616
352.500000	17.638628
351.000000	12.934547
349.500000	8.894409
348.000000	5.776606
346.500000	3.471060
345.000000	1.958939
343.500000	1.049363
342.000000	0.504522
340.500000	0.219480
339.000000	0.097434
337.500000	0.037985
336.000000	0.040193
334.500000	0.035081
333.000000	0.035181
331.500000	0.045854
330.000000	0.047455
328.500000	0.039935
327.000000	0.045501
325.500000	0.046409
324.000000	0.047713
322.500000	0.035814
321.000000	0.040257
319.500000	0.030701
318.000000	0.011664
316.500000	-0.011081
315.000000	-0.019819
313.500000	-0.018993
312.000000	-0.014963
310.500000	-0.015160
309.000000	-0.014714
307.500000	-0.012763
306.000000	-0.002464
304.500000	0.001423
303.000000	-0.004470
301.500000	-0.001332
300.000000	-0.002092
