PE UV       SUBTECH     SPECTRUM    ASCII       PEDS        4.00        
   -1
Sample239.Sample.Raw.asc
21/02/10
10:33:28.00
21/02/10
10:33:28.00
Administrator

300.000000
1
Lambda 850
850L1710193
PerkinElmer UV WinLab 6.4.0.973 / 2.02.06 Lambda 800 UV/VIS, Jan 28 2016 16:58:34

0
0
2
0
0
UV/VIS
1
1
1
RBeamAtt,SBeamAtt,60mm sphere
0
0
0
0
Fix
 
0
0.2
0
0
0
 
 
 
0
 
0
319.2
0
Front
100
 
S:100 R:100
 
0
0
0
 
0
 
 
 
0
 
 
0
0
0
0
0
 
 
 
 
0
0


0
0
#HDR
-1
-1
#GR
nm
%T
1.0
0.0
750.000000
-1.500000
301
8
70.472799
-0.028017
#DATA
750.000000	70.295891
748.500000	70.328903
747.000000	70.472799
745.500000	70.339807
744.000000	70.312335
742.500000	70.174874
741.000000	70.003922
739.500000	70.126978
738.000000	70.035532
736.500000	69.892137
735.000000	70.090220
733.500000	70.096398
732.000000	70.083683
730.500000	70.005717
729.000000	69.856033
727.500000	69.886700
726.000000	69.859495
724.500000	69.778041
723.000000	69.649599
721.500000	69.575684
720.000000	69.606653
718.500000	69.557717
717.000000	69.606851
715.500000	69.543315
714.000000	69.443419
712.500000	69.403976
711.000000	69.371805
709.500000	69.330974
708.000000	69.213494
706.500000	69.241140
705.000000	69.148650
703.500000	69.161997
702.000000	69.128391
700.500000	69.074880
699.000000	69.037195
697.500000	69.019055
696.000000	68.883421
694.500000	68.959522
693.000000	68.825636
691.500000	68.725199
690.000000	68.553947
688.500000	68.634984
687.000000	68.616996
685.500000	68.512321
684.000000	68.574436
682.500000	68.427026
681.000000	68.345730
679.500000	68.329135
678.000000	68.202713
676.500000	68.091914
675.000000	68.004792
673.500000	67.962485
672.000000	67.869069
670.500000	67.776558
669.000000	67.605333
667.500000	67.489219
666.000000	67.411584
664.500000	67.430943
663.000000	67.260467
661.500000	67.067631
660.000000	67.014328
658.500000	66.924774
657.000000	66.758397
655.500000	66.656410
654.000000	66.495458
652.500000	66.400131
651.000000	66.239343
649.500000	66.098059
648.000000	65.949582
646.500000	65.810329
645.000000	65.752645
643.500000	65.577862
642.000000	65.400771
640.500000	65.206729
639.000000	65.066182
637.500000	64.975770
636.000000	64.752014
634.500000	64.574006
633.000000	64.433719
631.500000	64.258446
630.000000	64.050806
628.500000	63.869972
627.000000	63.689158
625.500000	63.561479
624.000000	63.390593
622.500000	63.175566
621.000000	62.979204
619.500000	62.791104
618.000000	62.584507
616.500000	62.392647
615.000000	62.200170
613.500000	62.014703
612.000000	61.844117
610.500000	61.621188
609.000000	61.403515
607.500000	61.212977
606.000000	61.013511
604.500000	60.802722
603.000000	60.586208
601.500000	60.373567
600.000000	60.150482
598.500000	59.947211
597.000000	59.802703
595.500000	59.569152
594.000000	59.323924
592.500000	59.135126
591.000000	58.926617
589.500000	58.690259
588.000000	58.496218
586.500000	58.308327
585.000000	58.073369
583.500000	57.848209
582.000000	57.642512
580.500000	57.426467
579.000000	57.211523
577.500000	57.007932
576.000000	56.778800
574.500000	56.556307
573.000000	56.337562
571.500000	56.112909
570.000000	55.889569
568.500000	55.695843
567.000000	55.479510
565.500000	55.221958
564.000000	54.967108
562.500000	54.737489
561.000000	54.639143
559.500000	54.557285
558.000000	54.381858
556.500000	54.151926
555.000000	53.899618
553.500000	53.705295
552.000000	53.499440
550.500000	53.294692
549.000000	53.072162
547.500000	52.850899
546.000000	52.652195
544.500000	52.452900
543.000000	52.256646
541.500000	52.049730
540.000000	51.838324
538.500000	51.645306
537.000000	51.447084
535.500000	51.232034
534.000000	51.033330
532.500000	50.850099
531.000000	50.668425
529.500000	50.470369
528.000000	50.283141
526.500000	50.081165
525.000000	49.859358
523.500000	49.665175
522.000000	49.447071
520.500000	49.224137
519.000000	48.999493
517.500000	48.779932
516.000000	48.543720
514.500000	48.285054
513.000000	48.019401
511.500000	47.728908
510.000000	47.480738
508.500000	47.250480
507.000000	47.030666
505.500000	46.868188
504.000000	46.758463
502.500000	46.703577
501.000000	46.710693
499.500000	46.736984
498.000000	46.791594
496.500000	46.875311
495.000000	46.984570
493.500000	47.065665
492.000000	47.155584
490.500000	47.183444
489.000000	47.175945
487.500000	47.181516
486.000000	47.154841
484.500000	47.120096
483.000000	47.134071
481.500000	47.081538
480.000000	46.846935
478.500000	46.483363
477.000000	46.141584
475.500000	45.893726
474.000000	45.667936
472.500000	45.433874
471.000000	45.200597
469.500000	44.968194
468.000000	44.747970
466.500000	44.495613
465.000000	44.276325
463.500000	44.073522
462.000000	43.977027
460.500000	43.894044
459.000000	43.795284
457.500000	43.771714
456.000000	43.789525
454.500000	43.732457
453.000000	43.758001
451.500000	43.798594
450.000000	43.803819
448.500000	43.821500
447.000000	43.794606
445.500000	43.879515
444.000000	43.986253
442.500000	43.940237
441.000000	43.858518
439.500000	43.744513
438.000000	43.648378
436.500000	43.556245
435.000000	43.510709
433.500000	43.398829
432.000000	43.308409
430.500000	43.216520
429.000000	43.171555
427.500000	43.070830
426.000000	42.972912
424.500000	42.968328
423.000000	42.858802
421.500000	42.750927
420.000000	42.669327
418.500000	42.593137
417.000000	42.531730
415.500000	42.492111
414.000000	42.397490
412.500000	42.331631
411.000000	42.250727
409.500000	42.192482
408.000000	42.163740
406.500000	42.042031
405.000000	42.004243
403.500000	41.908735
402.000000	41.881686
400.500000	41.819924
399.000000	41.764956
397.500000	41.679789
396.000000	41.652152
394.500000	41.614029
393.000000	41.447138
391.500000	41.432301
390.000000	41.293482
388.500000	41.275690
387.000000	41.185933
385.500000	41.119905
384.000000	40.964008
382.500000	40.858782
381.000000	40.710372
379.500000	40.547631
378.000000	40.386596
376.500000	40.887547
375.000000	40.848741
373.500000	40.190323
372.000000	39.591211
370.500000	38.926092
369.000000	38.197819
367.500000	37.253488
366.000000	36.117383
364.500000	34.732083
363.000000	33.147272
361.500000	31.147785
360.000000	28.958274
358.500000	26.264618
357.000000	23.335728
355.500000	20.083858
354.000000	16.653891
352.500000	13.196966
351.000000	9.954755
349.500000	7.111167
348.000000	4.739918
346.500000	2.986880
345.000000	1.768469
343.500000	0.988678
342.000000	0.504839
340.500000	0.249831
339.000000	0.110146
337.500000	0.057640
336.000000	0.042237
334.500000	0.040875
333.000000	0.043615
331.500000	0.043392
330.000000	0.045068
328.500000	0.041446
327.000000	0.048647
325.500000	0.056129
324.000000	0.059137
322.500000	0.049935
321.000000	0.048669
319.500000	0.051195
318.000000	0.011244
316.500000	-0.027359
315.000000	-0.024022
313.500000	-0.025646
312.000000	-0.025885
310.500000	-0.028017
309.000000	-0.019231
307.500000	-0.014241
306.000000	-0.006561
304.500000	-0.002573
303.000000	-0.008008
301.500000	-0.010695
300.000000	-0.009075
