PE UV       SUBTECH     SPECTRUM    ASCII       PEDS        4.00        
   -1
Sample154.Sample.Raw.asc
21/01/27
12:24:20.00
21/01/27
12:24:20.00
Administrator

300.000000
1
Lambda 850
850L1710193
PerkinElmer UV WinLab 6.4.0.973 / 2.02.06 Lambda 800 UV/VIS, Jan 28 2016 16:58:34

0
0
2
0
0
UV/VIS
1
1
1
RBeamAtt,SBeamAtt,60mm sphere
0
0
0
0
Fix
 
0
0.2
0
0
0
 
 
 
0
 
0
319.2
0
Front
100
 
S:100 R:100
 
0
0
0
 
0
 
 
 
0
 
 
0
0
0
0
0
 
 
 
 
0
0


0
0
#HDR
-1
-1
#GR
nm
%T
1.0
0.0
750.000000
-1.500000
301
8
74.482910
-0.028870
#DATA
750.000000	73.982445
748.500000	74.372409
747.000000	74.482910
745.500000	74.356361
744.000000	74.178792
742.500000	74.207904
741.000000	74.298564
739.500000	74.392645
738.000000	74.290405
736.500000	74.236430
735.000000	74.088890
733.500000	74.132370
732.000000	74.290938
730.500000	74.150175
729.000000	74.267934
727.500000	74.206160
726.000000	74.194871
724.500000	74.117455
723.000000	74.002375
721.500000	74.045006
720.000000	74.028563
718.500000	74.061846
717.000000	73.927009
715.500000	74.020961
714.000000	73.971499
712.500000	73.869672
711.000000	73.838299
709.500000	73.865489
708.000000	73.949120
706.500000	73.895451
705.000000	73.890002
703.500000	73.841495
702.000000	73.843332
700.500000	73.837722
699.000000	73.758989
697.500000	73.833027
696.000000	73.788822
694.500000	73.817991
693.000000	73.631260
691.500000	73.698017
690.000000	73.585174
688.500000	73.631347
687.000000	73.654443
685.500000	73.676239
684.000000	73.700756
682.500000	73.656284
681.000000	73.566683
679.500000	73.603087
678.000000	73.582504
676.500000	73.514500
675.000000	73.542984
673.500000	73.483178
672.000000	73.426714
670.500000	73.414670
669.000000	73.435754
667.500000	73.394402
666.000000	73.377801
664.500000	73.369074
663.000000	73.293637
661.500000	73.273044
660.000000	73.199934
658.500000	73.197785
657.000000	73.225464
655.500000	73.179217
654.000000	73.145108
652.500000	73.092882
651.000000	73.076352
649.500000	73.036303
648.000000	72.979096
646.500000	72.982409
645.000000	72.882434
643.500000	72.829148
642.000000	72.755512
640.500000	72.719086
639.000000	72.718433
637.500000	72.647330
636.000000	72.622304
634.500000	72.610911
633.000000	72.491207
631.500000	72.435756
630.000000	72.455917
628.500000	72.365728
627.000000	72.358977
625.500000	72.326015
624.000000	72.209341
622.500000	72.191121
621.000000	72.150708
619.500000	72.082234
618.000000	72.062585
616.500000	71.985015
615.000000	71.939954
613.500000	71.896456
612.000000	71.822497
610.500000	71.778998
609.000000	71.722267
607.500000	71.690101
606.000000	71.613194
604.500000	71.556534
603.000000	71.529596
601.500000	71.477674
600.000000	71.382499
598.500000	71.338071
597.000000	71.355807
595.500000	71.312042
594.000000	71.220012
592.500000	71.177072
591.000000	71.109887
589.500000	71.013355
588.000000	70.987576
586.500000	70.958041
585.000000	70.872975
583.500000	70.777861
582.000000	70.731855
580.500000	70.694603
579.000000	70.668817
577.500000	70.618468
576.000000	70.550248
574.500000	70.493277
573.000000	70.415652
571.500000	70.370190
570.000000	70.320895
568.500000	70.233405
567.000000	70.155714
565.500000	70.124244
564.000000	70.062596
562.500000	70.024097
561.000000	70.126693
559.500000	70.200675
558.000000	70.178999
556.500000	70.166864
555.000000	70.106808
553.500000	70.076987
552.000000	70.058720
550.500000	70.004385
549.000000	69.963120
547.500000	69.942480
546.000000	69.915595
544.500000	69.880294
543.000000	69.876820
541.500000	69.869184
540.000000	69.838769
538.500000	69.800522
537.000000	69.780587
535.500000	69.737248
534.000000	69.704608
532.500000	69.713997
531.000000	69.732737
529.500000	69.730249
528.000000	69.711900
526.500000	69.672957
525.000000	69.650998
523.500000	69.614354
522.000000	69.545902
520.500000	69.445849
519.000000	69.339999
517.500000	69.230317
516.000000	69.058713
514.500000	68.830705
513.000000	68.590941
511.500000	68.348996
510.000000	68.107448
508.500000	67.851573
507.000000	67.576703
505.500000	67.331289
504.000000	67.105512
502.500000	66.962893
501.000000	66.897642
499.500000	66.850528
498.000000	66.785163
496.500000	66.766702
495.000000	66.762591
493.500000	66.801141
492.000000	66.888689
490.500000	66.920605
489.000000	66.977898
487.500000	67.109198
486.000000	67.281749
484.500000	67.446499
483.000000	67.852554
481.500000	68.259835
480.000000	68.414061
478.500000	68.225927
477.000000	68.030219
475.500000	67.930997
474.000000	67.807451
472.500000	67.691991
471.000000	67.563662
469.500000	67.388527
468.000000	67.173100
466.500000	66.878410
465.000000	66.635892
463.500000	66.354289
462.000000	66.096303
460.500000	65.870115
459.000000	65.737754
457.500000	65.594595
456.000000	65.523668
454.500000	65.429731
453.000000	65.453247
451.500000	65.399064
450.000000	65.275077
448.500000	65.217915
447.000000	65.067328
445.500000	65.089536
444.000000	65.330179
442.500000	65.451474
441.000000	65.347346
439.500000	65.262687
438.000000	65.193483
436.500000	65.039361
435.000000	64.971464
433.500000	64.867120
432.000000	64.831490
430.500000	64.747185
429.000000	64.666066
427.500000	64.553317
426.000000	64.448321
424.500000	64.394108
423.000000	64.337145
421.500000	64.240630
420.000000	64.143773
418.500000	64.044603
417.000000	63.948392
415.500000	63.877794
414.000000	63.728553
412.500000	63.694354
411.000000	63.559411
409.500000	63.421259
408.000000	63.349155
406.500000	63.286189
405.000000	63.160917
403.500000	63.015248
402.000000	62.876757
400.500000	62.788783
399.000000	62.771522
397.500000	62.662204
396.000000	62.519947
394.500000	62.432450
393.000000	62.233444
391.500000	62.081846
390.000000	62.001616
388.500000	61.857975
387.000000	61.701343
385.500000	61.550683
384.000000	61.321788
382.500000	61.156950
381.000000	60.892586
379.500000	60.597113
378.000000	60.450736
376.500000	60.952095
375.000000	61.120799
373.500000	60.542948
372.000000	59.655545
370.500000	58.863167
369.000000	57.943250
367.500000	56.918067
366.000000	55.644683
364.500000	54.222221
363.000000	52.455215
361.500000	50.624476
360.000000	48.067064
358.500000	45.250837
357.000000	41.867749
355.500000	38.198114
354.000000	33.869778
352.500000	29.326137
351.000000	24.475224
349.500000	19.699594
348.000000	15.050162
346.500000	10.845085
345.000000	7.268380
343.500000	4.418684
342.000000	2.419715
340.500000	1.141955
339.000000	0.476441
337.500000	0.170687
336.000000	0.071459
334.500000	0.043352
333.000000	0.041556
331.500000	0.040850
330.000000	0.042070
328.500000	0.041588
327.000000	0.045008
325.500000	0.048524
324.000000	0.047478
322.500000	0.049223
321.000000	0.051072
319.500000	0.045801
318.000000	0.002265
316.500000	-0.027005
315.000000	-0.027477
313.500000	-0.027598
312.000000	-0.028870
310.500000	-0.026436
309.000000	-0.018344
307.500000	-0.014301
306.000000	-0.008447
304.500000	-0.006751
303.000000	-0.006378
301.500000	-0.005241
300.000000	-0.008593
