PE UV       SUBTECH     SPECTRUM    ASCII       PEDS        4.00        
   -1
Sample105.Sample.Raw.asc
20/12/17
15:04:45.00
20/12/17
15:04:45.00
Administrator

300.000000
1
Lambda 850
850L1710193
PerkinElmer UV WinLab 6.4.0.973 / 2.02.06 Lambda 800 UV/VIS, Jan 28 2016 16:58:34

0
0
2
0
0
UV/VIS
1
1
1
RBeamAtt,SBeamAtt,60mm sphere
0
0
0
0
Fix
 
0
0.2
0
0
0
 
 
 
0
 
0
319.2
0
Front
100
 
S:100 R:100
 
0
0
0
 
0
 
 
 
0
 
 
0
0
0
0
0
 
 
 
 
0
0


0
0
#HDR
-1
-1
#GR
nm
%T
1.0
0.0
750.000000
-1.500000
301
8
75.536392
-0.025992
#DATA
750.000000	75.247604
748.500000	75.494197
747.000000	75.376875
745.500000	75.438994
744.000000	75.536392
742.500000	75.353931
741.000000	75.438198
739.500000	75.330618
738.000000	75.415623
736.500000	75.267671
735.000000	75.387763
733.500000	75.238902
732.000000	75.401736
730.500000	75.299601
729.000000	75.223850
727.500000	75.204867
726.000000	75.257657
724.500000	75.320890
723.000000	75.328161
721.500000	75.313519
720.000000	75.235437
718.500000	75.172499
717.000000	75.345400
715.500000	75.267940
714.000000	75.095780
712.500000	75.197773
711.000000	75.147604
709.500000	75.109644
708.000000	75.154868
706.500000	75.225732
705.000000	75.132207
703.500000	75.267769
702.000000	75.159622
700.500000	75.090543
699.000000	75.033794
697.500000	75.183767
696.000000	75.061156
694.500000	75.023915
693.000000	75.007839
691.500000	74.926246
690.000000	74.853132
688.500000	75.014187
687.000000	75.037976
685.500000	75.040060
684.000000	75.020105
682.500000	74.928235
681.000000	74.980323
679.500000	74.929333
678.000000	74.924881
676.500000	74.947581
675.000000	74.944847
673.500000	74.866355
672.000000	74.898668
670.500000	74.915743
669.000000	74.788350
667.500000	74.823455
666.000000	74.849307
664.500000	74.793435
663.000000	74.846616
661.500000	74.848476
660.000000	74.740201
658.500000	74.775600
657.000000	74.796109
655.500000	74.769585
654.000000	74.744492
652.500000	74.738600
651.000000	74.734426
649.500000	74.707771
648.000000	74.648036
646.500000	74.683079
645.000000	74.696951
643.500000	74.609553
642.000000	74.610065
640.500000	74.622849
639.000000	74.544012
637.500000	74.580981
636.000000	74.580847
634.500000	74.589125
633.000000	74.535310
631.500000	74.506598
630.000000	74.489465
628.500000	74.484588
627.000000	74.473741
625.500000	74.432362
624.000000	74.459614
622.500000	74.434398
621.000000	74.415957
619.500000	74.442806
618.000000	74.387730
616.500000	74.329512
615.000000	74.336196
613.500000	74.337141
612.000000	74.302391
610.500000	74.218458
609.000000	74.211107
607.500000	74.240593
606.000000	74.243322
604.500000	74.233313
603.000000	74.226539
601.500000	74.209787
600.000000	74.208383
598.500000	74.175380
597.000000	74.162216
595.500000	74.157061
594.000000	74.127291
592.500000	74.105675
591.000000	74.082694
589.500000	74.072481
588.000000	74.055550
586.500000	74.043334
585.000000	73.984381
583.500000	73.986405
582.000000	73.977226
580.500000	73.932023
579.000000	73.932751
577.500000	73.907089
576.000000	73.886950
574.500000	73.870213
573.000000	73.826145
571.500000	73.804620
570.000000	73.807157
568.500000	73.779459
567.000000	73.761735
565.500000	73.732310
564.000000	73.671603
562.500000	73.685946
561.000000	73.842437
559.500000	73.929691
558.000000	73.937872
556.500000	73.952867
555.000000	73.933402
553.500000	73.908389
552.000000	73.907132
550.500000	73.893764
549.000000	73.857854
547.500000	73.839828
546.000000	73.871645
544.500000	73.876772
543.000000	73.834346
541.500000	73.823093
540.000000	73.830119
538.500000	73.824390
537.000000	73.854438
535.500000	73.874217
534.000000	73.863322
532.500000	73.859408
531.000000	73.844613
529.500000	73.833947
528.000000	73.839486
526.500000	73.831443
525.000000	73.805270
523.500000	73.779307
522.000000	73.712737
520.500000	73.653922
519.000000	73.557374
517.500000	73.438881
516.000000	73.296526
514.500000	73.122979
513.000000	72.922093
511.500000	72.663230
510.000000	72.402199
508.500000	72.183561
507.000000	71.934759
505.500000	71.723862
504.000000	71.570252
502.500000	71.469778
501.000000	71.410334
499.500000	71.366126
498.000000	71.385920
496.500000	71.441159
495.000000	71.561073
493.500000	71.669518
492.000000	71.746001
490.500000	71.884114
489.000000	72.073966
487.500000	72.172262
486.000000	72.322278
484.500000	72.553875
483.000000	72.906543
481.500000	73.282408
480.000000	73.431026
478.500000	73.197572
477.000000	72.991428
475.500000	72.932936
474.000000	72.799535
472.500000	72.691988
471.000000	72.548661
469.500000	72.345213
468.000000	72.107100
466.500000	71.841150
465.000000	71.592356
463.500000	71.346544
462.000000	71.127100
460.500000	70.993237
459.000000	70.854397
457.500000	70.754646
456.000000	70.761877
454.500000	70.716481
453.000000	70.728166
451.500000	70.695194
450.000000	70.668963
448.500000	70.709212
447.000000	70.653923
445.500000	70.724441
444.000000	70.983920
442.500000	71.173797
441.000000	71.043370
439.500000	70.977466
438.000000	70.846757
436.500000	70.779201
435.000000	70.728875
433.500000	70.705646
432.000000	70.625888
430.500000	70.638919
429.000000	70.546294
427.500000	70.442589
426.000000	70.427708
424.500000	70.326380
423.000000	70.239041
421.500000	70.229404
420.000000	70.162226
418.500000	70.053489
417.000000	70.076116
415.500000	69.945224
414.000000	69.845335
412.500000	69.783071
411.000000	69.772914
409.500000	69.608559
408.000000	69.632585
406.500000	69.581927
405.000000	69.434865
403.500000	69.325552
402.000000	69.249851
400.500000	69.192325
399.000000	69.088637
397.500000	69.014927
396.000000	68.907038
394.500000	68.835586
393.000000	68.666288
391.500000	68.635243
390.000000	68.415313
388.500000	68.324291
387.000000	68.113810
385.500000	67.887907
384.000000	67.740593
382.500000	67.658626
381.000000	67.349832
379.500000	67.129723
378.000000	66.958294
376.500000	67.490911
375.000000	67.773398
373.500000	66.829961
372.000000	65.897016
370.500000	64.830172
369.000000	63.858099
367.500000	62.476131
366.000000	60.818421
364.500000	59.045739
363.000000	56.783876
361.500000	54.199858
360.000000	51.097484
358.500000	47.421544
357.000000	43.324951
355.500000	38.574173
354.000000	33.492505
352.500000	28.157915
351.000000	22.602192
349.500000	17.450297
348.000000	12.665997
346.500000	8.562577
345.000000	5.275013
343.500000	2.946015
342.000000	1.431145
340.500000	0.605729
339.000000	0.217792
337.500000	0.080067
336.000000	0.036405
334.500000	0.028418
333.000000	0.030198
331.500000	0.029872
330.000000	0.035238
328.500000	0.026094
327.000000	0.032042
325.500000	0.035361
324.000000	0.029402
322.500000	0.031680
321.000000	0.031516
319.500000	0.033172
318.000000	0.007423
316.500000	-0.024767
315.000000	-0.025992
313.500000	-0.022817
312.000000	-0.023222
310.500000	-0.013357
309.000000	-0.006601
307.500000	-0.008606
306.000000	0.000947
304.500000	-0.000284
303.000000	-0.004271
301.500000	-0.001425
300.000000	-0.004851
