PE UV       SUBTECH     SPECTRUM    ASCII       PEDS        4.00        
   -1
Sample106.Sample.Raw.asc
20/12/17
15:08:01.00
20/12/17
15:08:01.00
Administrator

300.000000
1
Lambda 850
850L1710193
PerkinElmer UV WinLab 6.4.0.973 / 2.02.06 Lambda 800 UV/VIS, Jan 28 2016 16:58:34

0
0
2
0
0
UV/VIS
1
1
1
RBeamAtt,SBeamAtt,60mm sphere
0
0
0
0
Fix
 
0
0.2
0
0
0
 
 
 
0
 
0
319.2
0
Front
100
 
S:100 R:100
 
0
0
0
 
0
 
 
 
0
 
 
0
0
0
0
0
 
 
 
 
0
0


0
0
#HDR
-1
-1
#GR
nm
%T
1.0
0.0
750.000000
-1.500000
301
8
74.998731
-0.037807
#DATA
750.000000	74.727010
748.500000	74.998731
747.000000	74.846437
745.500000	74.997801
744.000000	74.946320
742.500000	74.759225
741.000000	74.822363
739.500000	74.803486
738.000000	74.813033
736.500000	74.587560
735.000000	74.859582
733.500000	74.780605
732.000000	74.832458
730.500000	74.705419
729.000000	74.810732
727.500000	74.657503
726.000000	74.719530
724.500000	74.798295
723.000000	74.814165
721.500000	74.788192
720.000000	74.685645
718.500000	74.623684
717.000000	74.687727
715.500000	74.604907
714.000000	74.554501
712.500000	74.631139
711.000000	74.651548
709.500000	74.620843
708.000000	74.621354
706.500000	74.634626
705.000000	74.553976
703.500000	74.667075
702.000000	74.557118
700.500000	74.523456
699.000000	74.449305
697.500000	74.523658
696.000000	74.458084
694.500000	74.482683
693.000000	74.495930
691.500000	74.338094
690.000000	74.205637
688.500000	74.367243
687.000000	74.367045
685.500000	74.507266
684.000000	74.382312
682.500000	74.392764
681.000000	74.217146
679.500000	74.245134
678.000000	74.331135
676.500000	74.359697
675.000000	74.326319
673.500000	74.227778
672.000000	74.275996
670.500000	74.215761
669.000000	74.137900
667.500000	74.179958
666.000000	74.194158
664.500000	74.143502
663.000000	74.109730
661.500000	74.120884
660.000000	74.111365
658.500000	74.129625
657.000000	74.139042
655.500000	74.128023
654.000000	74.062919
652.500000	74.037504
651.000000	74.062994
649.500000	74.063069
648.000000	73.966345
646.500000	73.942815
645.000000	73.982453
643.500000	73.977303
642.000000	73.987617
640.500000	73.932331
639.000000	73.924176
637.500000	73.852256
636.000000	73.888549
634.500000	73.865352
633.000000	73.794457
631.500000	73.817405
630.000000	73.830609
628.500000	73.803057
627.000000	73.746242
625.500000	73.730123
624.000000	73.703761
622.500000	73.674189
621.000000	73.671278
619.500000	73.641480
618.000000	73.622327
616.500000	73.658488
615.000000	73.621829
613.500000	73.571482
612.000000	73.540366
610.500000	73.498107
609.000000	73.523549
607.500000	73.525469
606.000000	73.462804
604.500000	73.473145
603.000000	73.499706
601.500000	73.431397
600.000000	73.414002
598.500000	73.410503
597.000000	73.379475
595.500000	73.331386
594.000000	73.326308
592.500000	73.306328
591.000000	73.315342
589.500000	73.311199
588.000000	73.229410
586.500000	73.185620
585.000000	73.185201
583.500000	73.196639
582.000000	73.178090
580.500000	73.130932
579.000000	73.107389
577.500000	73.060661
576.000000	73.054050
574.500000	73.043059
573.000000	73.013718
571.500000	73.007577
570.000000	72.972672
568.500000	72.946047
567.000000	72.920499
565.500000	72.871293
564.000000	72.808475
562.500000	72.821785
561.000000	72.986843
559.500000	73.096546
558.000000	73.071870
556.500000	73.068224
555.000000	73.061578
553.500000	73.030939
552.000000	73.010119
550.500000	72.996442
549.000000	72.976527
547.500000	72.966073
546.000000	72.978770
544.500000	73.001077
543.000000	72.982313
541.500000	72.952224
540.000000	72.924267
538.500000	72.928389
537.000000	72.969958
535.500000	72.973789
534.000000	72.967086
532.500000	72.956292
531.000000	72.950292
529.500000	72.973986
528.000000	72.957345
526.500000	72.936830
525.000000	72.927489
523.500000	72.913255
522.000000	72.854590
520.500000	72.781978
519.000000	72.674973
517.500000	72.548901
516.000000	72.396923
514.500000	72.212823
513.000000	72.028012
511.500000	71.770873
510.000000	71.489957
508.500000	71.279428
507.000000	71.032853
505.500000	70.813638
504.000000	70.648012
502.500000	70.574052
501.000000	70.539318
499.500000	70.497346
498.000000	70.514616
496.500000	70.551501
495.000000	70.671412
493.500000	70.797943
492.000000	70.879490
490.500000	70.971831
489.000000	71.164029
487.500000	71.279543
486.000000	71.409335
484.500000	71.668132
483.000000	71.996281
481.500000	72.389008
480.000000	72.541528
478.500000	72.352412
477.000000	72.136691
475.500000	72.041460
474.000000	71.898909
472.500000	71.813464
471.000000	71.668123
469.500000	71.468405
468.000000	71.226831
466.500000	70.969318
465.000000	70.676695
463.500000	70.422263
462.000000	70.212702
460.500000	70.093479
459.000000	69.945505
457.500000	69.879791
456.000000	69.854211
454.500000	69.791125
453.000000	69.832202
451.500000	69.801179
450.000000	69.799414
448.500000	69.769699
447.000000	69.756268
445.500000	69.788926
444.000000	69.966621
442.500000	70.168014
441.000000	70.022137
439.500000	69.978629
438.000000	69.877986
436.500000	69.793312
435.000000	69.776812
433.500000	69.719469
432.000000	69.669663
430.500000	69.613100
429.000000	69.515161
427.500000	69.430739
426.000000	69.402606
424.500000	69.303288
423.000000	69.201040
421.500000	69.164623
420.000000	69.101270
418.500000	68.970678
417.000000	68.965377
415.500000	68.851230
414.000000	68.685583
412.500000	68.587439
411.000000	68.561608
409.500000	68.437178
408.000000	68.348287
406.500000	68.275905
405.000000	68.062417
403.500000	67.879588
402.000000	67.834978
400.500000	67.678273
399.000000	67.674505
397.500000	67.507507
396.000000	67.421906
394.500000	67.224973
393.000000	67.066768
391.500000	66.985121
390.000000	66.722532
388.500000	66.646933
387.000000	66.372008
385.500000	66.101863
384.000000	65.892799
382.500000	65.670671
381.000000	65.465462
379.500000	65.211484
378.000000	64.937781
376.500000	65.393885
375.000000	65.564497
373.500000	64.643346
372.000000	63.821137
370.500000	62.586806
369.000000	61.540586
367.500000	60.309826
366.000000	58.770135
364.500000	57.000959
363.000000	54.849304
361.500000	52.420881
360.000000	49.538058
358.500000	46.231473
357.000000	42.420449
355.500000	37.979544
354.000000	33.157621
352.500000	28.234732
351.000000	22.977191
349.500000	17.940109
348.000000	13.290675
346.500000	9.203482
345.000000	5.860972
343.500000	3.366663
342.000000	1.720939
340.500000	0.749035
339.000000	0.280852
337.500000	0.100986
336.000000	0.032977
334.500000	0.037304
333.000000	0.034459
331.500000	0.031821
330.000000	0.033940
328.500000	0.039559
327.000000	0.031763
325.500000	0.017215
324.000000	0.021587
322.500000	0.045843
321.000000	0.033474
319.500000	0.031867
318.000000	-0.006484
316.500000	-0.037807
315.000000	-0.035094
313.500000	-0.034085
312.000000	-0.036384
310.500000	-0.030570
309.000000	-0.028952
307.500000	-0.020238
306.000000	-0.010419
304.500000	-0.006824
303.000000	-0.012148
301.500000	-0.016525
300.000000	-0.015981
