PE UV       SUBTECH     SPECTRUM    ASCII       PEDS        4.00        
   -1
Sample247.Sample.Raw.asc
21/02/10
14:04:29.00
21/02/10
14:04:29.00
Administrator

300.000000
1
Lambda 850
850L1710193
PerkinElmer UV WinLab 6.4.0.973 / 2.02.06 Lambda 800 UV/VIS, Jan 28 2016 16:58:34

0
0
2
0
0
UV/VIS
1
1
1
RBeamAtt,SBeamAtt,60mm sphere
0
0
0
0
Fix
 
0
0.2
0
0
0
 
 
 
0
 
0
319.2
0
Front
100
 
S:100 R:100
 
0
0
0
 
0
 
 
 
0
 
 
0
0
0
0
0
 
 
 
 
0
0


0
0
#HDR
-1
-1
#GR
nm
%T
1.0
0.0
750.000000
-1.500000
301
8
72.443083
-0.027643
#DATA
750.000000	72.131711
748.500000	72.443083
747.000000	72.358032
745.500000	72.320050
744.000000	72.074682
742.500000	72.201124
741.000000	72.344688
739.500000	72.187824
738.000000	72.173734
736.500000	72.047393
735.000000	72.085425
733.500000	72.015826
732.000000	71.930675
730.500000	71.974796
729.000000	71.914814
727.500000	71.769120
726.000000	71.743440
724.500000	71.721508
723.000000	71.632933
721.500000	71.675947
720.000000	71.671368
718.500000	71.553049
717.000000	71.663020
715.500000	71.541173
714.000000	71.522483
712.500000	71.459322
711.000000	71.361842
709.500000	71.406567
708.000000	71.351520
706.500000	71.205029
705.000000	71.192663
703.500000	71.061963
702.000000	71.158085
700.500000	71.153615
699.000000	71.154450
697.500000	71.039613
696.000000	71.043827
694.500000	70.939648
693.000000	70.960996
691.500000	70.811103
690.000000	70.639827
688.500000	70.826310
687.000000	70.828613
685.500000	70.721896
684.000000	70.632993
682.500000	70.539144
681.000000	70.468452
679.500000	70.414711
678.000000	70.254354
676.500000	70.233415
675.000000	70.244382
673.500000	70.094352
672.000000	69.986288
670.500000	70.049038
669.000000	69.906875
667.500000	69.725136
666.000000	69.627714
664.500000	69.577645
663.000000	69.428853
661.500000	69.412234
660.000000	69.282952
658.500000	69.159802
657.000000	69.041683
655.500000	68.898963
654.000000	68.786129
652.500000	68.682690
651.000000	68.609736
649.500000	68.437754
648.000000	68.344168
646.500000	68.166213
645.000000	68.061152
643.500000	67.952535
642.000000	67.820997
640.500000	67.628412
639.000000	67.464037
637.500000	67.339721
636.000000	67.198057
634.500000	67.005936
633.000000	66.845365
631.500000	66.708641
630.000000	66.565081
628.500000	66.384263
627.000000	66.204230
625.500000	66.111027
624.000000	65.920064
622.500000	65.719458
621.000000	65.526025
619.500000	65.339537
618.000000	65.161168
616.500000	64.987748
615.000000	64.794362
613.500000	64.602885
612.000000	64.459161
610.500000	64.280692
609.000000	64.101617
607.500000	63.927484
606.000000	63.734746
604.500000	63.568346
603.000000	63.404559
601.500000	63.182257
600.000000	62.971699
598.500000	62.815669
597.000000	62.612191
595.500000	62.400219
594.000000	62.197940
592.500000	62.016127
591.000000	61.859240
589.500000	61.672112
588.000000	61.474357
586.500000	61.293108
585.000000	61.090179
583.500000	60.884399
582.000000	60.717857
580.500000	60.526900
579.000000	60.342722
577.500000	60.172826
576.000000	59.989480
574.500000	59.803455
573.000000	59.645108
571.500000	59.444434
570.000000	59.244365
568.500000	59.063391
567.000000	58.869828
565.500000	58.674610
564.000000	58.438451
562.500000	58.266222
561.000000	58.241701
559.500000	58.191117
558.000000	58.031298
556.500000	57.882645
555.000000	57.766182
553.500000	57.594435
552.000000	57.438742
550.500000	57.296146
549.000000	57.129115
547.500000	56.998136
546.000000	56.879330
544.500000	56.746457
543.000000	56.619974
541.500000	56.484040
540.000000	56.356555
538.500000	56.223387
537.000000	56.105672
535.500000	56.007324
534.000000	55.880608
532.500000	55.737765
531.000000	55.620791
529.500000	55.507397
528.000000	55.393406
526.500000	55.275227
525.000000	55.135730
523.500000	54.990408
522.000000	54.839354
520.500000	54.664000
519.000000	54.466909
517.500000	54.268722
516.000000	54.031972
514.500000	53.747536
513.000000	53.407506
511.500000	53.084154
510.000000	52.745515
508.500000	52.388299
507.000000	52.038952
505.500000	51.680209
504.000000	51.327080
502.500000	51.034256
501.000000	50.760357
499.500000	50.514820
498.000000	50.264525
496.500000	50.062507
495.000000	49.923692
493.500000	49.733508
492.000000	49.593675
490.500000	49.523840
489.000000	49.485152
487.500000	49.463713
486.000000	49.482406
484.500000	49.563713
483.000000	49.800107
481.500000	50.118886
480.000000	50.219263
478.500000	50.082447
477.000000	49.865992
475.500000	49.723998
474.000000	49.604992
472.500000	49.439887
471.000000	49.265352
469.500000	49.060391
468.000000	48.808087
466.500000	48.527073
465.000000	48.225372
463.500000	47.906746
462.000000	47.619139
460.500000	47.320426
459.000000	47.126461
457.500000	46.860548
456.000000	46.694371
454.500000	46.492307
453.000000	46.350197
451.500000	46.156905
450.000000	46.026636
448.500000	45.887219
447.000000	45.711114
445.500000	45.573766
444.000000	45.565194
442.500000	45.607689
441.000000	45.450661
439.500000	45.367427
438.000000	45.258127
436.500000	45.071701
435.000000	44.941242
433.500000	44.830152
432.000000	44.682464
430.500000	44.568108
429.000000	44.414779
427.500000	44.318134
426.000000	44.155406
424.500000	44.056690
423.000000	43.943072
421.500000	43.871660
420.000000	43.788986
418.500000	43.658878
417.000000	43.505517
415.500000	43.438661
414.000000	43.292505
412.500000	43.228147
411.000000	43.130314
409.500000	42.995062
408.000000	42.901508
406.500000	42.788427
405.000000	42.729360
403.500000	42.605554
402.000000	42.514150
400.500000	42.420525
399.000000	42.358869
397.500000	42.247867
396.000000	42.164672
394.500000	42.102250
393.000000	41.994716
391.500000	41.939935
390.000000	41.860320
388.500000	41.762838
387.000000	41.632073
385.500000	41.573669
384.000000	41.454782
382.500000	41.304526
381.000000	41.175155
379.500000	41.016329
378.000000	40.966234
376.500000	41.457669
375.000000	41.475203
373.500000	40.926600
372.000000	40.511423
370.500000	39.904632
369.000000	39.303633
367.500000	38.634136
366.000000	37.768668
364.500000	36.713458
363.000000	35.430406
361.500000	33.924786
360.000000	32.137230
358.500000	29.986959
357.000000	27.491001
355.500000	24.785283
354.000000	21.644806
352.500000	18.347648
351.000000	14.932831
349.500000	11.640303
348.000000	8.552670
346.500000	5.880738
345.000000	3.716723
343.500000	2.118189
342.000000	1.073784
340.500000	0.472669
339.000000	0.185314
337.500000	0.068235
336.000000	0.038638
334.500000	0.037969
333.000000	0.038327
331.500000	0.041804
330.000000	0.037147
328.500000	0.039692
327.000000	0.041315
325.500000	0.049690
324.000000	0.054513
322.500000	0.057548
321.000000	0.047949
319.500000	0.043469
318.000000	0.001889
316.500000	-0.027643
315.000000	-0.023774
313.500000	-0.025328
312.000000	-0.024170
310.500000	-0.022804
309.000000	-0.016976
307.500000	-0.008157
306.000000	-0.010270
304.500000	-0.005814
303.000000	-0.005252
301.500000	-0.005827
300.000000	-0.004397
