PE UV       SUBTECH     SPECTRUM    ASCII       PEDS        4.00        
   -1
Sample22.Sample.Raw.asc
21/03/30
16:08:41.00
21/03/30
16:08:41.00
Administrator

300.000000
1
Lambda 850
850L1710193
PerkinElmer UV WinLab 6.4.0.973 / 2.02.06 Lambda 800 UV/VIS, Jan 28 2016 16:58:34

0
0
2
0
0
UV/VIS
1
1
1
RBeamAtt,SBeamAtt,60mm sphere
0
0
0
0
Fix
 
0
0.2
0
0
0
 
 
 
0
 
0
340
0
Front
100
 
S:100 R:100
 
0
0
0
 
0
 
 
 
0
 
 
0
0
0
0
0
 
 
 
 
0
0


0
0
#HDR
-1
-1
#GR
nm
%T
1.0
0.0
750.000000
-1.500000
301
8
73.732261
-0.029433
#DATA
750.000000	73.414241
748.500000	73.719117
747.000000	73.606698
745.500000	73.692154
744.000000	73.570380
742.500000	73.653841
741.000000	73.667306
739.500000	73.732261
738.000000	73.605717
736.500000	73.626202
735.000000	73.573504
733.500000	73.489482
732.000000	73.522942
730.500000	73.724798
729.000000	73.621281
727.500000	73.553955
726.000000	73.525149
724.500000	73.614765
723.000000	73.583370
721.500000	73.626757
720.000000	73.626054
718.500000	73.524689
717.000000	73.413439
715.500000	73.506896
714.000000	73.459354
712.500000	73.394329
711.000000	73.550561
709.500000	73.382135
708.000000	73.375790
706.500000	73.434247
705.000000	73.295750
703.500000	73.307156
702.000000	73.408678
700.500000	73.297293
699.000000	73.313090
697.500000	73.317043
696.000000	73.279628
694.500000	73.365632
693.000000	73.247682
691.500000	73.145861
690.000000	73.070925
688.500000	73.164355
687.000000	73.154892
685.500000	73.220711
684.000000	73.104642
682.500000	73.157683
681.000000	73.210917
679.500000	73.144886
678.000000	73.096326
676.500000	73.110936
675.000000	73.078004
673.500000	73.081564
672.000000	73.035663
670.500000	72.996928
669.000000	73.004006
667.500000	73.004579
666.000000	72.930733
664.500000	72.939097
663.000000	72.968217
661.500000	72.904983
660.000000	72.867983
658.500000	72.856474
657.000000	72.772438
655.500000	72.748657
654.000000	72.751279
652.500000	72.758205
651.000000	72.712761
649.500000	72.672469
648.000000	72.650542
646.500000	72.609228
645.000000	72.621281
643.500000	72.554371
642.000000	72.545868
640.500000	72.531317
639.000000	72.476805
637.500000	72.429554
636.000000	72.421334
634.500000	72.401834
633.000000	72.379661
631.500000	72.257891
630.000000	72.261289
628.500000	72.324572
627.000000	72.265976
625.500000	72.252793
624.000000	72.217896
622.500000	72.115491
621.000000	72.096417
619.500000	72.116926
618.000000	72.049038
616.500000	72.015921
615.000000	72.024181
613.500000	71.974435
612.000000	71.920905
610.500000	71.898246
609.000000	71.776875
607.500000	71.776121
606.000000	71.721253
604.500000	71.687790
603.000000	71.612672
601.500000	71.605085
600.000000	71.576497
598.500000	71.545229
597.000000	71.513588
595.500000	71.508425
594.000000	71.485726
592.500000	71.439098
591.000000	71.355467
589.500000	71.311411
588.000000	71.247196
586.500000	71.227469
585.000000	71.215320
583.500000	71.185435
582.000000	71.117548
580.500000	71.036745
579.000000	71.027755
577.500000	71.011087
576.000000	70.954579
574.500000	70.939114
573.000000	70.905910
571.500000	70.833557
570.000000	70.750783
568.500000	70.699376
567.000000	70.624979
565.500000	70.560908
564.000000	70.470173
562.500000	70.420830
561.000000	70.573576
559.500000	70.688703
558.000000	70.645521
556.500000	70.603758
555.000000	70.570620
553.500000	70.542401
552.000000	70.513075
550.500000	70.462982
549.000000	70.417645
547.500000	70.373688
546.000000	70.318292
544.500000	70.285839
543.000000	70.262767
541.500000	70.219327
540.000000	70.172181
538.500000	70.143709
537.000000	70.132019
535.500000	70.104943
534.000000	70.048313
532.500000	70.021418
531.000000	70.025720
529.500000	69.999183
528.000000	69.934603
526.500000	69.882664
525.000000	69.841380
523.500000	69.790230
522.000000	69.682000
520.500000	69.581728
519.000000	69.503449
517.500000	69.369707
516.000000	69.215404
514.500000	69.028649
513.000000	68.825054
511.500000	68.596920
510.000000	68.362753
508.500000	68.124355
507.000000	67.911788
505.500000	67.780159
504.000000	67.675973
502.500000	67.623061
501.000000	67.614204
499.500000	67.648313
498.000000	67.792515
496.500000	67.923380
495.000000	68.034720
493.500000	68.196649
492.000000	68.320108
490.500000	68.442339
489.000000	68.582305
487.500000	68.732845
486.000000	68.846018
484.500000	69.030829
483.000000	69.274683
481.500000	69.558001
480.000000	69.561647
478.500000	69.298794
477.000000	69.046189
475.500000	68.902806
474.000000	68.741494
472.500000	68.555136
471.000000	68.383827
469.500000	68.194999
468.000000	67.956976
466.500000	67.687902
465.000000	67.460865
463.500000	67.246572
462.000000	67.028057
460.500000	66.887954
459.000000	66.847109
457.500000	66.790038
456.000000	66.811406
454.500000	66.835423
453.000000	66.874706
451.500000	66.866238
450.000000	66.898294
448.500000	66.898457
447.000000	66.890228
445.500000	67.000561
444.000000	67.212694
442.500000	67.363005
441.000000	67.231727
439.500000	67.096235
438.000000	67.041780
436.500000	66.989192
435.000000	66.935230
433.500000	66.867430
432.000000	66.833089
430.500000	66.669278
429.000000	66.646913
427.500000	66.553133
426.000000	66.423103
424.500000	66.431501
423.000000	66.328317
421.500000	66.197866
420.000000	66.137933
418.500000	66.076996
417.000000	65.994074
415.500000	65.858460
414.000000	65.821348
412.500000	65.684419
411.000000	65.639793
409.500000	65.477547
408.000000	65.432201
406.500000	65.219311
405.000000	65.200352
403.500000	65.066066
402.000000	65.044716
400.500000	64.889823
399.000000	64.686951
397.500000	64.634052
396.000000	64.609623
394.500000	64.378718
393.000000	64.310632
391.500000	64.118076
390.000000	64.014993
388.500000	63.907894
387.000000	63.637599
385.500000	63.432140
384.000000	63.242377
382.500000	62.953845
381.000000	62.629881
379.500000	62.267713
378.000000	62.029074
376.500000	62.448886
375.000000	62.523180
373.500000	61.338542
372.000000	60.279336
370.500000	59.126473
369.000000	57.831883
367.500000	55.771054
366.000000	54.121247
364.500000	51.600679
363.000000	48.834416
361.500000	45.624400
360.000000	41.791528
358.500000	37.519111
357.000000	32.630651
355.500000	27.553062
354.000000	22.265163
352.500000	17.063909
351.000000	12.526152
349.500000	8.573375
348.000000	5.509963
346.500000	3.309298
345.000000	1.861235
343.500000	0.978597
342.000000	0.476506
340.500000	0.205283
339.000000	0.048765
337.500000	-0.011315
336.000000	-0.021173
334.500000	-0.028728
333.000000	-0.029433
331.500000	-0.024600
330.000000	-0.019750
328.500000	-0.019402
327.000000	-0.024610
325.500000	-0.021834
324.000000	-0.020358
322.500000	-0.022101
321.000000	-0.022932
319.500000	-0.017470
318.000000	0.003296
316.500000	-0.021780
315.000000	-0.020566
313.500000	-0.024914
312.000000	-0.026896
310.500000	-0.022522
309.000000	-0.021332
307.500000	-0.011257
306.000000	-0.007765
304.500000	-0.003227
303.000000	-0.007698
301.500000	-0.010160
300.000000	-0.012282
