PE UV       SUBTECH     SPECTRUM    ASCII       PEDS        4.00        
   -1
Sample157.Sample.Raw.asc
21/01/27
12:34:16.00
21/01/27
12:34:16.00
Administrator

300.000000
1
Lambda 850
850L1710193
PerkinElmer UV WinLab 6.4.0.973 / 2.02.06 Lambda 800 UV/VIS, Jan 28 2016 16:58:34

0
0
2
0
0
UV/VIS
1
1
1
RBeamAtt,SBeamAtt,60mm sphere
0
0
0
0
Fix
 
0
0.2
0
0
0
 
 
 
0
 
0
319.2
0
Front
100
 
S:100 R:100
 
0
0
0
 
0
 
 
 
0
 
 
0
0
0
0
0
 
 
 
 
0
0


0
0
#HDR
-1
-1
#GR
nm
%T
1.0
0.0
750.000000
-1.500000
301
8
72.703765
-0.030958
#DATA
750.000000	72.391124
748.500000	72.703765
747.000000	72.520256
745.500000	72.640558
744.000000	72.494769
742.500000	72.442877
741.000000	72.452340
739.500000	72.535119
738.000000	72.486071
736.500000	72.461000
735.000000	72.366964
733.500000	72.475270
732.000000	72.391125
730.500000	72.272233
729.000000	72.204468
727.500000	72.320697
726.000000	72.285190
724.500000	72.286393
723.000000	72.320519
721.500000	72.309600
720.000000	72.170196
718.500000	72.221480
717.000000	72.140231
715.500000	72.149296
714.000000	72.161006
712.500000	71.987871
711.000000	72.076263
709.500000	72.057861
708.000000	71.950835
706.500000	72.014085
705.000000	72.049349
703.500000	72.015782
702.000000	72.005682
700.500000	71.990233
699.000000	71.960042
697.500000	72.019644
696.000000	71.887880
694.500000	71.874294
693.000000	71.853983
691.500000	71.828281
690.000000	71.666736
688.500000	71.790551
687.000000	71.823760
685.500000	71.801913
684.000000	71.711014
682.500000	71.665742
681.000000	71.616582
679.500000	71.628878
678.000000	71.622055
676.500000	71.544592
675.000000	71.497907
673.500000	71.507949
672.000000	71.448186
670.500000	71.359653
669.000000	71.367865
667.500000	71.390882
666.000000	71.315429
664.500000	71.219698
663.000000	71.154310
661.500000	71.159252
660.000000	71.047215
658.500000	71.008338
657.000000	70.962062
655.500000	70.877361
654.000000	70.886946
652.500000	70.859600
651.000000	70.759021
649.500000	70.669951
648.000000	70.514214
646.500000	70.546895
645.000000	70.460108
643.500000	70.392656
642.000000	70.294442
640.500000	70.158498
639.000000	70.126421
637.500000	70.089117
636.000000	69.985403
634.500000	69.918148
633.000000	69.835473
631.500000	69.748555
630.000000	69.632283
628.500000	69.544045
627.000000	69.466382
625.500000	69.428463
624.000000	69.293929
622.500000	69.234067
621.000000	69.130472
619.500000	69.005754
618.000000	68.927382
616.500000	68.854851
615.000000	68.768461
613.500000	68.663914
612.000000	68.572451
610.500000	68.528028
609.000000	68.410797
607.500000	68.307221
606.000000	68.182641
604.500000	68.141572
603.000000	68.030870
601.500000	67.929633
600.000000	67.789966
598.500000	67.709546
597.000000	67.652587
595.500000	67.555668
594.000000	67.409759
592.500000	67.337974
591.000000	67.243945
589.500000	67.131584
588.000000	67.064487
586.500000	66.989796
585.000000	66.875517
583.500000	66.717653
582.000000	66.614790
580.500000	66.545146
579.000000	66.454743
577.500000	66.349752
576.000000	66.230108
574.500000	66.149104
573.000000	66.068088
571.500000	65.945159
570.000000	65.803974
568.500000	65.697939
567.000000	65.597228
565.500000	65.460939
564.000000	65.338073
562.500000	65.276012
561.000000	65.335932
559.500000	65.386770
558.000000	65.302344
556.500000	65.172031
555.000000	65.085173
553.500000	65.025345
552.000000	64.937788
550.500000	64.839489
549.000000	64.743869
547.500000	64.653302
546.000000	64.578783
544.500000	64.493455
543.000000	64.413506
541.500000	64.347868
540.000000	64.247204
538.500000	64.147011
537.000000	64.066829
535.500000	63.983816
534.000000	63.931869
532.500000	63.878256
531.000000	63.816345
529.500000	63.736262
528.000000	63.666725
526.500000	63.580145
525.000000	63.482964
523.500000	63.390082
522.000000	63.279568
520.500000	63.150707
519.000000	63.036829
517.500000	62.929358
516.000000	62.726689
514.500000	62.522136
513.000000	62.323252
511.500000	62.116126
510.000000	61.888868
508.500000	61.685491
507.000000	61.490038
505.500000	61.337445
504.000000	61.259667
502.500000	61.230581
501.000000	61.247348
499.500000	61.342146
498.000000	61.421314
496.500000	61.541689
495.000000	61.673878
493.500000	61.853034
492.000000	62.032630
490.500000	62.160824
489.000000	62.303183
487.500000	62.407606
486.000000	62.483024
484.500000	62.563958
483.000000	62.789313
481.500000	62.992526
480.000000	62.974663
478.500000	62.667198
477.000000	62.388429
475.500000	62.225280
474.000000	62.084680
472.500000	61.914129
471.000000	61.770287
469.500000	61.569078
468.000000	61.368600
466.500000	61.114757
465.000000	60.916032
463.500000	60.720980
462.000000	60.581234
460.500000	60.457748
459.000000	60.368231
457.500000	60.334547
456.000000	60.347986
454.500000	60.395173
453.000000	60.468488
451.500000	60.484511
450.000000	60.573998
448.500000	60.606707
447.000000	60.579635
445.500000	60.611044
444.000000	60.899474
442.500000	61.004742
441.000000	60.916163
439.500000	60.832773
438.000000	60.781848
436.500000	60.686447
435.000000	60.595330
433.500000	60.562285
432.000000	60.482058
430.500000	60.426705
429.000000	60.371042
427.500000	60.235495
426.000000	60.179078
424.500000	60.095892
423.000000	60.054271
421.500000	59.952058
420.000000	59.888177
418.500000	59.859732
417.000000	59.760773
415.500000	59.673177
414.000000	59.589833
412.500000	59.526670
411.000000	59.423533
409.500000	59.395190
408.000000	59.300047
406.500000	59.179940
405.000000	59.041618
403.500000	59.001168
402.000000	58.908288
400.500000	58.798301
399.000000	58.738193
397.500000	58.682421
396.000000	58.546309
394.500000	58.421488
393.000000	58.310042
391.500000	58.254858
390.000000	58.118297
388.500000	58.054622
387.000000	57.850241
385.500000	57.730551
384.000000	57.568390
382.500000	57.257748
381.000000	57.087498
379.500000	56.771035
378.000000	56.545785
376.500000	56.949343
375.000000	56.905332
373.500000	56.118100
372.000000	55.158011
370.500000	54.212024
369.000000	52.979924
367.500000	51.432862
366.000000	49.693910
364.500000	47.681179
363.000000	45.242606
361.500000	42.345444
360.000000	38.911126
358.500000	35.110988
357.000000	30.836267
355.500000	26.100755
354.000000	21.307173
352.500000	16.645802
351.000000	12.222042
349.500000	8.478105
348.000000	5.533365
346.500000	3.347914
345.000000	1.909862
343.500000	1.007991
342.000000	0.505354
340.500000	0.229781
339.000000	0.092412
337.500000	0.055039
336.000000	0.037077
334.500000	0.039639
333.000000	0.034863
331.500000	0.045503
330.000000	0.040111
328.500000	0.050260
327.000000	0.049854
325.500000	0.052444
324.000000	0.049250
322.500000	0.048289
321.000000	0.054154
319.500000	0.047484
318.000000	0.002077
316.500000	-0.027005
315.000000	-0.030958
313.500000	-0.029670
312.000000	-0.028398
310.500000	-0.026625
309.000000	-0.018627
307.500000	-0.013070
306.000000	-0.011768
304.500000	-0.003708
303.000000	-0.004760
301.500000	-0.013912
300.000000	-0.011649
