PE UV       SUBTECH     SPECTRUM    ASCII       PEDS        4.00        
   -1
Sample148.Sample.Raw.asc
21/01/19
15:29:02.00
21/01/19
15:29:02.00
Administrator

300.000000
1
Lambda 850
850L1710193
PerkinElmer UV WinLab 6.4.0.973 / 2.02.06 Lambda 800 UV/VIS, Jan 28 2016 16:58:34

0
0
2
0
0
UV/VIS
1
1
1
RBeamAtt,SBeamAtt,60mm sphere
0
0
0
0
Fix
 
0
0.2
0
0
0
 
 
 
0
 
0
319.2
0
Front
100
 
S:100 R:100
 
0
0
0
 
0
 
 
 
0
 
 
0
0
0
0
0
 
 
 
 
0
0


0
0
#HDR
-1
-1
#GR
nm
%T
1.0
0.0
750.000000
-1.500000
301
8
75.050212
-0.043120
#DATA
750.000000	74.729080
748.500000	74.916926
747.000000	75.050212
745.500000	74.942308
744.000000	74.964712
742.500000	75.045090
741.000000	74.838810
739.500000	74.859630
738.000000	74.877491
736.500000	74.768900
735.000000	74.968320
733.500000	74.841755
732.000000	74.974985
730.500000	74.829397
729.000000	74.858916
727.500000	74.746174
726.000000	74.741811
724.500000	74.752660
723.000000	74.790595
721.500000	74.778466
720.000000	74.763820
718.500000	74.669355
717.000000	74.672989
715.500000	74.572146
714.000000	74.689847
712.500000	74.662548
711.000000	74.594643
709.500000	74.603761
708.000000	74.528735
706.500000	74.596531
705.000000	74.634400
703.500000	74.603730
702.000000	74.555471
700.500000	74.508167
699.000000	74.578610
697.500000	74.556130
696.000000	74.524926
694.500000	74.422331
693.000000	74.472411
691.500000	74.386328
690.000000	74.299834
688.500000	74.391305
687.000000	74.420476
685.500000	74.484514
684.000000	74.407747
682.500000	74.437866
681.000000	74.433096
679.500000	74.410950
678.000000	74.355617
676.500000	74.416817
675.000000	74.390361
673.500000	74.258413
672.000000	74.258838
670.500000	74.337965
669.000000	74.315217
667.500000	74.236183
666.000000	74.235080
664.500000	74.205166
663.000000	74.216655
661.500000	74.195456
660.000000	74.231006
658.500000	74.166372
657.000000	74.146842
655.500000	74.152237
654.000000	74.167304
652.500000	74.045390
651.000000	74.043556
649.500000	74.050414
648.000000	74.002607
646.500000	73.990512
645.000000	74.039723
643.500000	74.018207
642.000000	73.996508
640.500000	74.012669
639.000000	73.939671
637.500000	73.921039
636.000000	73.942940
634.500000	73.901822
633.000000	73.863619
631.500000	73.832275
630.000000	73.788464
628.500000	73.778090
627.000000	73.788025
625.500000	73.767816
624.000000	73.743574
622.500000	73.677079
621.000000	73.677947
619.500000	73.725684
618.000000	73.679261
616.500000	73.653716
615.000000	73.624481
613.500000	73.610980
612.000000	73.624889
610.500000	73.554008
609.000000	73.555663
607.500000	73.539774
606.000000	73.507928
604.500000	73.496260
603.000000	73.490289
601.500000	73.505676
600.000000	73.470820
598.500000	73.421676
597.000000	73.370836
595.500000	73.383202
594.000000	73.369185
592.500000	73.360224
591.000000	73.327762
589.500000	73.317361
588.000000	73.270762
586.500000	73.222056
585.000000	73.206217
583.500000	73.154922
582.000000	73.180284
580.500000	73.208567
579.000000	73.149086
577.500000	73.102585
576.000000	73.080287
574.500000	73.043250
573.000000	73.023333
571.500000	73.024854
570.000000	73.005156
568.500000	72.958557
567.000000	72.923020
565.500000	72.899867
564.000000	72.878747
562.500000	72.883244
561.000000	73.003251
559.500000	73.085648
558.000000	73.065675
556.500000	73.075759
555.000000	73.059966
553.500000	73.021704
552.000000	73.017496
550.500000	72.999330
549.000000	73.018816
547.500000	73.030196
546.000000	72.997611
544.500000	73.003236
543.000000	73.003975
541.500000	73.009971
540.000000	73.023117
538.500000	72.983040
537.000000	72.992161
535.500000	73.016050
534.000000	73.007909
532.500000	73.038186
531.000000	73.053504
529.500000	73.026203
528.000000	73.001742
526.500000	72.992273
525.000000	72.976945
523.500000	72.936900
522.000000	72.881319
520.500000	72.836996
519.000000	72.738684
517.500000	72.589040
516.000000	72.443703
514.500000	72.266857
513.000000	72.054418
511.500000	71.811830
510.000000	71.559533
508.500000	71.294003
507.000000	71.043089
505.500000	70.866427
504.000000	70.701006
502.500000	70.597380
501.000000	70.543608
499.500000	70.540409
498.000000	70.575912
496.500000	70.641037
495.000000	70.708033
493.500000	70.811762
492.000000	70.972432
490.500000	71.071703
489.000000	71.209402
487.500000	71.385546
486.000000	71.506726
484.500000	71.688946
483.000000	72.050918
481.500000	72.480087
480.000000	72.588738
478.500000	72.369785
477.000000	72.136970
475.500000	72.054465
474.000000	71.987954
472.500000	71.880488
471.000000	71.693932
469.500000	71.498936
468.000000	71.278334
466.500000	71.042988
465.000000	70.740456
463.500000	70.533863
462.000000	70.324619
460.500000	70.111001
459.000000	70.014570
457.500000	69.915898
456.000000	69.905669
454.500000	69.888960
453.000000	69.836234
451.500000	69.826534
450.000000	69.849761
448.500000	69.824247
447.000000	69.820645
445.500000	69.858009
444.000000	70.053207
442.500000	70.251005
441.000000	70.154607
439.500000	70.036861
438.000000	70.026720
436.500000	69.946424
435.000000	69.913737
433.500000	69.843794
432.000000	69.735266
430.500000	69.653797
429.000000	69.563307
427.500000	69.542207
426.000000	69.515026
424.500000	69.392041
423.000000	69.279693
421.500000	69.317195
420.000000	69.171345
418.500000	69.086300
417.000000	68.984725
415.500000	68.931868
414.000000	68.875936
412.500000	68.749675
411.000000	68.626481
409.500000	68.644015
408.000000	68.447766
406.500000	68.346287
405.000000	68.233064
403.500000	68.032941
402.000000	68.059233
400.500000	67.901477
399.000000	67.778867
397.500000	67.618894
396.000000	67.528827
394.500000	67.322174
393.000000	67.151877
391.500000	67.066605
390.000000	66.914731
388.500000	66.679464
387.000000	66.429688
385.500000	66.367706
384.000000	66.093304
382.500000	65.833376
381.000000	65.576369
379.500000	65.258046
378.000000	65.063459
376.500000	65.538141
375.000000	65.644179
373.500000	64.842579
372.000000	63.945365
370.500000	62.949085
369.000000	61.873383
367.500000	60.649914
366.000000	59.245962
364.500000	57.208313
363.000000	55.464472
361.500000	52.924592
360.000000	49.941409
358.500000	46.800469
357.000000	42.934029
355.500000	38.529551
354.000000	33.969644
352.500000	28.846731
351.000000	23.618406
349.500000	18.543597
348.000000	13.804038
346.500000	9.609569
345.000000	6.170884
343.500000	3.602381
342.000000	1.842623
340.500000	0.828104
339.000000	0.322459
337.500000	0.109715
336.000000	0.055550
334.500000	0.025156
333.000000	0.035671
331.500000	0.045150
330.000000	0.040596
328.500000	0.047461
327.000000	0.045147
325.500000	0.030932
324.000000	0.042265
322.500000	0.040555
321.000000	0.041860
319.500000	0.043993
318.000000	-0.003578
316.500000	-0.034152
315.000000	-0.036793
313.500000	-0.043120
312.000000	-0.035350
310.500000	-0.034146
309.000000	-0.034480
307.500000	-0.022513
306.000000	-0.016312
304.500000	-0.008931
303.000000	-0.014856
301.500000	-0.018660
300.000000	-0.017344
