PE UV       SUBTECH     SPECTRUM    ASCII       PEDS        4.00        
   -1
Sample115.Sample.Raw.asc
20/12/17
15:42:02.00
20/12/17
15:42:02.00
Administrator

300.000000
1
Lambda 850
850L1710193
PerkinElmer UV WinLab 6.4.0.973 / 2.02.06 Lambda 800 UV/VIS, Jan 28 2016 16:58:34

0
0
2
0
0
UV/VIS
1
1
1
RBeamAtt,SBeamAtt,60mm sphere
0
0
0
0
Fix
 
0
0.2
0
0
0
 
 
 
0
 
0
319.2
0
Front
100
 
S:100 R:100
 
0
0
0
 
0
 
 
 
0
 
 
0
0
0
0
0
 
 
 
 
0
0


0
0
#HDR
-1
-1
#GR
nm
%T
1.0
0.0
750.000000
-1.500000
301
8
75.835208
-0.031362
#DATA
750.000000	75.438541
748.500000	75.830553
747.000000	75.617998
745.500000	75.706227
744.000000	75.715351
742.500000	75.676256
741.000000	75.631338
739.500000	75.645897
738.000000	75.606445
736.500000	75.721805
735.000000	75.835208
733.500000	75.549318
732.000000	75.703515
730.500000	75.624142
729.000000	75.600847
727.500000	75.588969
726.000000	75.501435
724.500000	75.624270
723.000000	75.722694
721.500000	75.708347
720.000000	75.546160
718.500000	75.472400
717.000000	75.554246
715.500000	75.510136
714.000000	75.441110
712.500000	75.520344
711.000000	75.593346
709.500000	75.465928
708.000000	75.568529
706.500000	75.561445
705.000000	75.446228
703.500000	75.590937
702.000000	75.541082
700.500000	75.543461
699.000000	75.423508
697.500000	75.442536
696.000000	75.435761
694.500000	75.443776
693.000000	75.414002
691.500000	75.382446
690.000000	75.282018
688.500000	75.392034
687.000000	75.370088
685.500000	75.473124
684.000000	75.370203
682.500000	75.388462
681.000000	75.275924
679.500000	75.242044
678.000000	75.331964
676.500000	75.304475
675.000000	75.392546
673.500000	75.245387
672.000000	75.265037
670.500000	75.232097
669.000000	75.227641
667.500000	75.243209
666.000000	75.212842
664.500000	75.208945
663.000000	75.219945
661.500000	75.197034
660.000000	75.127323
658.500000	75.121418
657.000000	75.102418
655.500000	75.139104
654.000000	75.176824
652.500000	75.164996
651.000000	75.136561
649.500000	75.141848
648.000000	75.107429
646.500000	75.080227
645.000000	75.059877
643.500000	75.046107
642.000000	75.097391
640.500000	75.021111
639.000000	74.985329
637.500000	74.949500
636.000000	74.931647
634.500000	75.006322
633.000000	74.945467
631.500000	74.941215
630.000000	74.955145
628.500000	74.964074
627.000000	74.917757
625.500000	74.916372
624.000000	74.935762
622.500000	74.910733
621.000000	74.883175
619.500000	74.865855
618.000000	74.820454
616.500000	74.778097
615.000000	74.801640
613.500000	74.815719
612.000000	74.734277
610.500000	74.712515
609.000000	74.771577
607.500000	74.766706
606.000000	74.683982
604.500000	74.693144
603.000000	74.692827
601.500000	74.695209
600.000000	74.678838
598.500000	74.670495
597.000000	74.648613
595.500000	74.597289
594.000000	74.573867
592.500000	74.563317
591.000000	74.568953
589.500000	74.605181
588.000000	74.600589
586.500000	74.533538
585.000000	74.465192
583.500000	74.509284
582.000000	74.512157
580.500000	74.476646
579.000000	74.470285
577.500000	74.433920
576.000000	74.428603
574.500000	74.426133
573.000000	74.371915
571.500000	74.333124
570.000000	74.351820
568.500000	74.332866
567.000000	74.286075
565.500000	74.242982
564.000000	74.219231
562.500000	74.238911
561.000000	74.405900
559.500000	74.547984
558.000000	74.532959
556.500000	74.532555
555.000000	74.514837
553.500000	74.481413
552.000000	74.474596
550.500000	74.473321
549.000000	74.463069
547.500000	74.467678
546.000000	74.489904
544.500000	74.502375
543.000000	74.494314
541.500000	74.472882
540.000000	74.450221
538.500000	74.454561
537.000000	74.521223
535.500000	74.535362
534.000000	74.511544
532.500000	74.501178
531.000000	74.500354
529.500000	74.522973
528.000000	74.510501
526.500000	74.503022
525.000000	74.492337
523.500000	74.465014
522.000000	74.424048
520.500000	74.373548
519.000000	74.282837
517.500000	74.157307
516.000000	74.025477
514.500000	73.836532
513.000000	73.599509
511.500000	73.357047
510.000000	73.116684
508.500000	72.891345
507.000000	72.652899
505.500000	72.450654
504.000000	72.306541
502.500000	72.200383
501.000000	72.159386
499.500000	72.153680
498.000000	72.144643
496.500000	72.215980
495.000000	72.330644
493.500000	72.413705
492.000000	72.525679
490.500000	72.670458
489.000000	72.867510
487.500000	73.005338
486.000000	73.168393
484.500000	73.399459
483.000000	73.726738
481.500000	74.127790
480.000000	74.302548
478.500000	74.082914
477.000000	73.904777
475.500000	73.812221
474.000000	73.686974
472.500000	73.568257
471.000000	73.458495
469.500000	73.266658
468.000000	73.017726
466.500000	72.783996
465.000000	72.494027
463.500000	72.259924
462.000000	72.055057
460.500000	71.928858
459.000000	71.778345
457.500000	71.676736
456.000000	71.666714
454.500000	71.651495
453.000000	71.668474
451.500000	71.655991
450.000000	71.661089
448.500000	71.659751
447.000000	71.664736
445.500000	71.723188
444.000000	71.980525
442.500000	72.165977
441.000000	72.041947
439.500000	71.966479
438.000000	71.885740
436.500000	71.798107
435.000000	71.803530
433.500000	71.712427
432.000000	71.701009
430.500000	71.678218
429.000000	71.583154
427.500000	71.535916
426.000000	71.488059
424.500000	71.411247
423.000000	71.355031
421.500000	71.344390
420.000000	71.284835
418.500000	71.192226
417.000000	71.157511
415.500000	71.124853
414.000000	70.997185
412.500000	70.935551
411.000000	70.930534
409.500000	70.811750
408.000000	70.769369
406.500000	70.664366
405.000000	70.585260
403.500000	70.492696
402.000000	70.460725
400.500000	70.392407
399.000000	70.324941
397.500000	70.216788
396.000000	70.198411
394.500000	70.065320
393.000000	69.916704
391.500000	69.826070
390.000000	69.717656
388.500000	69.602928
387.000000	69.375602
385.500000	69.138621
384.000000	69.036788
382.500000	68.905526
381.000000	68.598476
379.500000	68.433953
378.000000	68.256419
376.500000	68.982390
375.000000	69.212149
373.500000	68.211249
372.000000	67.408800
370.500000	66.170678
369.000000	65.140705
367.500000	63.856836
366.000000	62.229169
364.500000	60.476830
363.000000	58.188994
361.500000	55.658887
360.000000	52.484178
358.500000	48.964845
357.000000	44.872042
355.500000	40.172715
354.000000	35.047320
352.500000	29.664019
351.000000	24.111651
349.500000	18.754010
348.000000	13.812438
346.500000	9.496051
345.000000	5.988952
343.500000	3.417964
342.000000	1.713828
340.500000	0.758823
339.000000	0.289649
337.500000	0.112186
336.000000	0.055765
334.500000	0.038230
333.000000	0.039276
331.500000	0.054642
330.000000	0.054341
328.500000	0.051909
327.000000	0.052474
325.500000	0.048296
324.000000	0.056106
322.500000	0.051806
321.000000	0.060514
319.500000	0.047241
318.000000	0.008457
316.500000	-0.022327
315.000000	-0.024584
313.500000	-0.031362
312.000000	-0.030743
310.500000	-0.022951
309.000000	-0.020087
307.500000	-0.020143
306.000000	-0.009945
304.500000	-0.009667
303.000000	-0.009870
301.500000	-0.013296
300.000000	-0.017693
