PE UV       SUBTECH     SPECTRUM    ASCII       PEDS        4.00        
   -1
Sample272.Sample.Raw.asc
21/02/15
14:04:31.00
21/02/15
14:04:31.00
Administrator

300.000000
1
Lambda 850
850L1710193
PerkinElmer UV WinLab 6.4.0.973 / 2.02.06 Lambda 800 UV/VIS, Jan 28 2016 16:58:34

0
0
2
0
0
UV/VIS
1
1
1
RBeamAtt,SBeamAtt,60mm sphere
0
0
0
0
Fix
 
0
0.2
0
0
0
 
 
 
0
 
0
319.2
0
Front
100
 
S:100 R:100
 
0
0
0
 
0
 
 
 
0
 
 
0
0
0
0
0
 
 
 
 
0
0


0
0
#HDR
-1
-1
#GR
nm
%T
1.0
0.0
750.000000
-1.500000
301
8
73.126083
-0.030253
#DATA
750.000000	72.745528
748.500000	73.048855
747.000000	73.126083
745.500000	72.999463
744.000000	73.065778
742.500000	72.996526
741.000000	73.116546
739.500000	72.891034
738.000000	72.910391
736.500000	73.108789
735.000000	72.902015
733.500000	72.823729
732.000000	72.829648
730.500000	72.691013
729.000000	72.821954
727.500000	72.806195
726.000000	72.715499
724.500000	72.599163
723.000000	72.583287
721.500000	72.662002
720.000000	72.723112
718.500000	72.613737
717.000000	72.646166
715.500000	72.445423
714.000000	72.497516
712.500000	72.461252
711.000000	72.375568
709.500000	72.419960
708.000000	72.323420
706.500000	72.368689
705.000000	72.280567
703.500000	72.228311
702.000000	72.223785
700.500000	72.122765
699.000000	72.116771
697.500000	72.118123
696.000000	72.177502
694.500000	72.275001
693.000000	72.211809
691.500000	72.021255
690.000000	71.827260
688.500000	72.120710
687.000000	72.015976
685.500000	71.949421
684.000000	71.915654
682.500000	71.871103
681.000000	71.764668
679.500000	71.848298
678.000000	71.787463
676.500000	71.642964
675.000000	71.661983
673.500000	71.652587
672.000000	71.677001
670.500000	71.538598
669.000000	71.510402
667.500000	71.435249
666.000000	71.394284
664.500000	71.324078
663.000000	71.246517
661.500000	71.162320
660.000000	71.114637
658.500000	71.065219
657.000000	70.981723
655.500000	70.941933
654.000000	70.864861
652.500000	70.761644
651.000000	70.635845
649.500000	70.574746
648.000000	70.451243
646.500000	70.375355
645.000000	70.322903
643.500000	70.335635
642.000000	70.175208
640.500000	70.061218
639.000000	70.032899
637.500000	69.956749
636.000000	69.852746
634.500000	69.711303
633.000000	69.626861
631.500000	69.538846
630.000000	69.399184
628.500000	69.299498
627.000000	69.198743
625.500000	69.099932
624.000000	69.015606
622.500000	68.937923
621.000000	68.787613
619.500000	68.678037
618.000000	68.514503
616.500000	68.439510
615.000000	68.357582
613.500000	68.277287
612.000000	68.157012
610.500000	68.018428
609.000000	67.879892
607.500000	67.708085
606.000000	67.628586
604.500000	67.532013
603.000000	67.400818
601.500000	67.288598
600.000000	67.166443
598.500000	67.048386
597.000000	66.955392
595.500000	66.828077
594.000000	66.700846
592.500000	66.608003
591.000000	66.477798
589.500000	66.335147
588.000000	66.227538
586.500000	66.108797
585.000000	65.998030
583.500000	65.884840
582.000000	65.797680
580.500000	65.670625
579.000000	65.505962
577.500000	65.397911
576.000000	65.312847
574.500000	65.202592
573.000000	65.088107
571.500000	64.978783
570.000000	64.868733
568.500000	64.776369
567.000000	64.655000
565.500000	64.528990
564.000000	64.386271
562.500000	64.297345
561.000000	64.366439
559.500000	64.371266
558.000000	64.260005
556.500000	64.179628
555.000000	64.101204
553.500000	64.054649
552.000000	63.975701
550.500000	63.868831
549.000000	63.783219
547.500000	63.713921
546.000000	63.664307
544.500000	63.575323
543.000000	63.518326
541.500000	63.476966
540.000000	63.411101
538.500000	63.375372
537.000000	63.346667
535.500000	63.318583
534.000000	63.251923
532.500000	63.200263
531.000000	63.166468
529.500000	63.110802
528.000000	63.052157
526.500000	63.017708
525.000000	62.956155
523.500000	62.873521
522.000000	62.787445
520.500000	62.672521
519.000000	62.542530
517.500000	62.408954
516.000000	62.237223
514.500000	62.020544
513.000000	61.757683
511.500000	61.491000
510.000000	61.218779
508.500000	60.923112
507.000000	60.624670
505.500000	60.380867
504.000000	60.129281
502.500000	59.935629
501.000000	59.718909
499.500000	59.571447
498.000000	59.462783
496.500000	59.339790
495.000000	59.294117
493.500000	59.205856
492.000000	59.206097
490.500000	59.251981
489.000000	59.269019
487.500000	59.313729
486.000000	59.460653
484.500000	59.636025
483.000000	59.988908
481.500000	60.362330
480.000000	60.536678
478.500000	60.398043
477.000000	60.242105
475.500000	60.145552
474.000000	60.086242
472.500000	59.997238
471.000000	59.857660
469.500000	59.675834
468.000000	59.438879
466.500000	59.171587
465.000000	58.903768
463.500000	58.665015
462.000000	58.386800
460.500000	58.211775
459.000000	58.039085
457.500000	57.840242
456.000000	57.699577
454.500000	57.603788
453.000000	57.529833
451.500000	57.370208
450.000000	57.296423
448.500000	57.218568
447.000000	57.137685
445.500000	57.079095
444.000000	57.184576
442.500000	57.287388
441.000000	57.193880
439.500000	57.033601
438.000000	56.940243
436.500000	56.791749
435.000000	56.738602
433.500000	56.660227
432.000000	56.602334
430.500000	56.438384
429.000000	56.313344
427.500000	56.302957
426.000000	56.210921
424.500000	56.110519
423.000000	56.078993
421.500000	55.875290
420.000000	55.832889
418.500000	55.713619
417.000000	55.654582
415.500000	55.570988
414.000000	55.439448
412.500000	55.389027
411.000000	55.216176
409.500000	55.096384
408.000000	55.030063
406.500000	54.937536
405.000000	54.869523
403.500000	54.779259
402.000000	54.681571
400.500000	54.555935
399.000000	54.504310
397.500000	54.428167
396.000000	54.319141
394.500000	54.235545
393.000000	54.122023
391.500000	54.032336
390.000000	53.930914
388.500000	53.871381
387.000000	53.738121
385.500000	53.638467
384.000000	53.483038
382.500000	53.398271
381.000000	53.096781
379.500000	52.904617
378.000000	53.087555
376.500000	53.414848
375.000000	53.441396
373.500000	52.863106
372.000000	52.331461
370.500000	51.629922
369.000000	50.681584
367.500000	49.777368
366.000000	48.577707
364.500000	47.244004
363.000000	45.593635
361.500000	43.627710
360.000000	41.272641
358.500000	38.426078
357.000000	35.125588
355.500000	31.402737
354.000000	27.308831
352.500000	22.953521
351.000000	18.535562
349.500000	14.234044
348.000000	10.323031
346.500000	6.919328
345.000000	4.277282
343.500000	2.365112
342.000000	1.149424
340.500000	0.487794
339.000000	0.182869
337.500000	0.075263
336.000000	0.046944
334.500000	0.043888
333.000000	0.049033
331.500000	0.042194
330.000000	0.039767
328.500000	0.043534
327.000000	0.051950
325.500000	0.047925
324.000000	0.041343
322.500000	0.045020
321.000000	0.043934
319.500000	0.044670
318.000000	0.004615
316.500000	-0.026694
315.000000	-0.029631
313.500000	-0.027697
312.000000	-0.030253
310.500000	-0.027191
309.000000	-0.023745
307.500000	-0.016586
306.000000	-0.009965
304.500000	-0.006558
303.000000	-0.006376
301.500000	-0.013624
300.000000	-0.011638
