PE UV       SUBTECH     SPECTRUM    ASCII       PEDS        4.00        
   -1
Sample321.Sample.Processed.asc
21/03/25
15:39:55.00
21/03/25
15:39:55.00
Administrator

300.000000
1
Lambda 850
850L1710193
PerkinElmer UV WinLab 6.4.0.973 / 2.02.06 Lambda 800 UV/VIS, Jan 28 2016 16:58:34

0
0
2
0
0
UV/VIS
1
1
1
RBeamAtt,SBeamAtt,60mm sphere
0
0
0
0
Fix
 
0
0.2
0
0
0
 
 
 
0
 
0
340
0
Front
100
 
S:100 R:100
 
0
0
0
 
0
 
 
 
0
 
 
0
0
0
0
0
 
 
 
 
0
0


0
0
#HDR
-1
-1
#GR
nm
%T
1.0
0.0
750.000000
-1.500000
301
8
73.397739
-0.051766
#DATA
750.000000	72.948812
748.500000	73.254798
747.000000	73.397739
745.500000	73.228268
744.000000	73.305570
742.500000	73.261522
741.000000	73.133398
739.500000	73.160093
738.000000	73.235601
736.500000	73.264243
735.000000	73.141993
733.500000	73.021282
732.000000	72.940652
730.500000	72.970032
729.000000	73.045990
727.500000	72.841418
726.000000	72.922249
724.500000	72.781871
723.000000	72.921137
721.500000	72.903634
720.000000	72.854372
718.500000	72.766843
717.000000	72.796992
715.500000	72.831935
714.000000	72.714538
712.500000	72.629724
711.000000	72.686132
709.500000	72.623974
708.000000	72.627835
706.500000	72.549856
705.000000	72.635133
703.500000	72.530510
702.000000	72.580077
700.500000	72.521091
699.000000	72.474096
697.500000	72.486708
696.000000	72.525390
694.500000	72.426730
693.000000	72.349343
691.500000	72.213504
690.000000	72.170744
688.500000	72.376704
687.000000	72.319692
685.500000	72.350936
684.000000	72.319800
682.500000	72.204298
681.000000	72.129417
679.500000	72.143562
678.000000	72.001938
676.500000	71.909481
675.000000	71.995467
673.500000	71.983759
672.000000	71.922873
670.500000	71.903858
669.000000	71.791936
667.500000	71.751798
666.000000	71.693467
664.500000	71.584022
663.000000	71.493919
661.500000	71.536385
660.000000	71.459257
658.500000	71.411334
657.000000	71.361960
655.500000	71.301085
654.000000	71.233608
652.500000	71.131692
651.000000	71.051525
649.500000	70.910331
648.000000	70.838071
646.500000	70.841656
645.000000	70.724714
643.500000	70.715623
642.000000	70.583569
640.500000	70.532415
639.000000	70.442327
637.500000	70.300743
636.000000	70.208973
634.500000	70.178603
633.000000	70.033991
631.500000	69.916147
630.000000	69.831978
628.500000	69.776316
627.000000	69.647958
625.500000	69.548004
624.000000	69.439657
622.500000	69.290741
621.000000	69.279342
619.500000	69.141340
618.000000	68.988023
616.500000	68.895115
615.000000	68.810430
613.500000	68.720204
612.000000	68.596029
610.500000	68.460949
609.000000	68.361584
607.500000	68.269404
606.000000	68.186592
604.500000	68.098774
603.000000	67.970264
601.500000	67.805110
600.000000	67.687216
598.500000	67.647472
597.000000	67.498239
595.500000	67.360485
594.000000	67.297303
592.500000	67.198616
591.000000	67.075282
589.500000	66.975879
588.000000	66.870904
586.500000	66.720284
585.000000	66.634535
583.500000	66.566606
582.000000	66.449109
580.500000	66.308264
579.000000	66.190227
577.500000	66.061855
576.000000	65.994279
574.500000	65.928092
573.000000	65.811976
571.500000	65.683216
570.000000	65.569647
568.500000	65.491893
567.000000	65.365236
565.500000	65.234637
564.000000	65.144110
562.500000	65.046737
561.000000	65.113737
559.500000	65.170435
558.000000	65.064405
556.500000	64.981918
555.000000	64.907711
553.500000	64.821718
552.000000	64.766368
550.500000	64.687112
549.000000	64.589857
547.500000	64.548563
546.000000	64.499307
544.500000	64.430265
543.000000	64.368643
541.500000	64.344472
540.000000	64.286523
538.500000	64.199048
537.000000	64.169433
535.500000	64.155918
534.000000	64.105267
532.500000	64.075430
531.000000	64.031744
529.500000	63.967791
528.000000	63.921625
526.500000	63.886286
525.000000	63.813753
523.500000	63.743055
522.000000	63.661796
520.500000	63.546197
519.000000	63.433333
517.500000	63.291544
516.000000	63.093630
514.500000	62.885750
513.000000	62.653784
511.500000	62.367047
510.000000	62.062588
508.500000	61.781744
507.000000	61.474626
505.500000	61.197387
504.000000	60.983208
502.500000	60.806475
501.000000	60.608406
499.500000	60.445004
498.000000	60.338984
496.500000	60.281947
495.000000	60.203876
493.500000	60.159140
492.000000	60.176569
490.500000	60.221373
489.000000	60.254321
487.500000	60.363066
486.000000	60.464665
484.500000	60.663206
483.000000	60.978335
481.500000	61.344763
480.000000	61.546910
478.500000	61.459028
477.000000	61.248917
475.500000	61.156104
474.000000	61.120670
472.500000	61.022711
471.000000	60.886662
469.500000	60.679324
468.000000	60.452229
466.500000	60.223058
465.000000	59.963073
463.500000	59.693419
462.000000	59.423534
460.500000	59.183198
459.000000	59.006196
457.500000	58.940306
456.000000	58.755663
454.500000	58.642937
453.000000	58.534219
451.500000	58.409105
450.000000	58.352287
448.500000	58.280177
447.000000	58.195315
445.500000	58.111244
444.000000	58.233652
442.500000	58.330589
441.000000	58.288476
439.500000	58.113807
438.000000	58.057048
436.500000	57.949273
435.000000	57.889045
433.500000	57.785151
432.000000	57.710612
430.500000	57.611372
429.000000	57.555091
427.500000	57.447936
426.000000	57.352004
424.500000	57.248912
423.000000	57.243881
421.500000	57.042289
420.000000	56.981377
418.500000	56.943347
417.000000	56.818170
415.500000	56.722423
414.000000	56.603528
412.500000	56.548394
411.000000	56.467925
409.500000	56.384676
408.000000	56.179639
406.500000	56.160847
405.000000	56.163386
403.500000	55.993703
402.000000	55.891704
400.500000	55.857907
399.000000	55.770899
397.500000	55.713812
396.000000	55.558035
394.500000	55.515994
393.000000	55.454403
391.500000	55.360316
390.000000	55.228251
388.500000	55.086098
387.000000	55.041455
385.500000	54.824914
384.000000	54.713014
382.500000	54.593403
381.000000	54.494913
379.500000	54.173035
378.000000	54.189007
376.500000	54.657419
375.000000	54.963933
373.500000	54.166244
372.000000	53.569491
370.500000	52.756302
369.000000	51.893274
367.500000	50.793751
366.000000	49.541367
364.500000	48.188922
363.000000	46.332184
361.500000	44.244004
360.000000	41.642858
358.500000	38.780284
357.000000	35.281674
355.500000	31.483342
354.000000	27.193490
352.500000	22.780544
351.000000	18.218697
349.500000	13.933632
348.000000	9.971940
346.500000	6.636751
345.000000	4.010384
343.500000	2.209300
342.000000	1.058753
340.500000	0.439186
339.000000	0.112708
337.500000	-0.019878
336.000000	-0.051766
334.500000	-0.040528
333.000000	-0.031919
331.500000	-0.046442
330.000000	-0.038672
328.500000	-0.036016
327.000000	-0.042436
325.500000	-0.034890
324.000000	-0.041204
322.500000	-0.044965
321.000000	-0.050259
319.500000	-0.044622
318.000000	0.005368
316.500000	-0.018809
315.000000	-0.018933
313.500000	-0.021077
312.000000	-0.026109
310.500000	-0.019625
309.000000	-0.019473
307.500000	-0.011730
306.000000	-0.005883
304.500000	-0.002753
303.000000	-0.003518
301.500000	-0.009520
300.000000	-0.011816
