PE UV       SUBTECH     SPECTRUM    ASCII       PEDS        4.00        
   -1
Sample324.Sample.Processed.asc
21/03/25
15:50:48.00
21/03/25
15:50:48.00
Administrator

300.000000
1
Lambda 850
850L1710193
PerkinElmer UV WinLab 6.4.0.973 / 2.02.06 Lambda 800 UV/VIS, Jan 28 2016 16:58:34

0
0
2
0
0
UV/VIS
1
1
1
RBeamAtt,SBeamAtt,60mm sphere
0
0
0
0
Fix
 
0
0.2
0
0
0
 
 
 
0
 
0
340
0
Front
100
 
S:100 R:100
 
0
0
0
 
0
 
 
 
0
 
 
0
0
0
0
0
 
 
 
 
0
0


0
0
#HDR
-1
-1
#GR
nm
%T
1.0
0.0
750.000000
-1.500000
301
8
70.188783
-0.034815
#DATA
750.000000	69.854777
748.500000	70.188783
747.000000	70.137257
745.500000	69.975052
744.000000	70.070829
742.500000	69.995823
741.000000	70.042716
739.500000	69.826081
738.000000	69.933629
736.500000	70.003389
735.000000	69.831434
733.500000	69.623678
732.000000	69.676277
730.500000	69.710623
729.000000	69.634100
727.500000	69.529265
726.000000	69.572157
724.500000	69.511789
723.000000	69.651569
721.500000	69.551351
720.000000	69.521158
718.500000	69.457514
717.000000	69.384643
715.500000	69.422235
714.000000	69.397797
712.500000	69.184474
711.000000	69.277373
709.500000	69.252604
708.000000	69.227555
706.500000	69.172179
705.000000	69.210565
703.500000	69.042219
702.000000	69.230304
700.500000	69.145099
699.000000	69.073414
697.500000	69.031916
696.000000	69.052953
694.500000	68.977464
693.000000	68.930892
691.500000	68.734535
690.000000	68.661205
688.500000	68.830168
687.000000	68.838393
685.500000	68.793993
684.000000	68.753198
682.500000	68.666185
681.000000	68.560867
679.500000	68.549255
678.000000	68.431876
676.500000	68.425065
675.000000	68.363324
673.500000	68.299436
672.000000	68.245434
670.500000	68.163332
669.000000	68.076886
667.500000	67.992325
666.000000	67.889452
664.500000	67.785222
663.000000	67.698707
661.500000	67.689706
660.000000	67.501789
658.500000	67.389696
657.000000	67.338798
655.500000	67.243559
654.000000	67.160777
652.500000	66.953580
651.000000	66.902761
649.500000	66.730683
648.000000	66.629537
646.500000	66.600225
645.000000	66.380712
643.500000	66.263278
642.000000	66.174264
640.500000	66.035270
639.000000	65.868442
637.500000	65.748068
636.000000	65.601802
634.500000	65.510356
633.000000	65.299297
631.500000	65.171544
630.000000	65.010107
628.500000	64.898855
627.000000	64.755141
625.500000	64.590305
624.000000	64.465499
622.500000	64.289768
621.000000	64.147716
619.500000	63.973073
618.000000	63.804386
616.500000	63.664325
615.000000	63.482005
613.500000	63.318246
612.000000	63.163908
610.500000	62.992362
609.000000	62.849960
607.500000	62.670528
606.000000	62.542916
604.500000	62.370951
603.000000	62.160611
601.500000	61.962278
600.000000	61.763652
598.500000	61.637809
597.000000	61.421864
595.500000	61.246710
594.000000	61.139721
592.500000	61.004560
591.000000	60.838490
589.500000	60.655261
588.000000	60.489096
586.500000	60.282530
585.000000	60.157009
583.500000	60.025985
582.000000	59.838079
580.500000	59.641587
579.000000	59.475396
577.500000	59.294254
576.000000	59.131118
574.500000	58.990206
573.000000	58.820837
571.500000	58.615885
570.000000	58.420487
568.500000	58.272865
567.000000	58.094444
565.500000	57.898567
564.000000	57.741774
562.500000	57.590278
561.000000	57.562875
559.500000	57.555812
558.000000	57.382192
556.500000	57.218367
555.000000	57.104227
553.500000	56.920024
552.000000	56.770624
550.500000	56.632323
549.000000	56.454626
547.500000	56.341260
546.000000	56.211275
544.500000	56.054372
543.000000	55.909386
541.500000	55.805818
540.000000	55.677140
538.500000	55.508204
537.000000	55.401457
535.500000	55.280513
534.000000	55.147239
532.500000	55.035691
531.000000	54.903331
529.500000	54.784765
528.000000	54.658637
526.500000	54.543561
525.000000	54.405137
523.500000	54.260139
522.000000	54.122968
520.500000	53.961130
519.000000	53.832202
517.500000	53.686033
516.000000	53.508321
514.500000	53.326050
513.000000	53.110572
511.500000	52.882408
510.000000	52.693027
508.500000	52.513664
507.000000	52.337257
505.500000	52.231198
504.000000	52.182804
502.500000	52.176476
501.000000	52.191472
499.500000	52.288413
498.000000	52.420898
496.500000	52.581309
495.000000	52.715929
493.500000	52.891555
492.000000	53.024773
490.500000	53.139816
489.000000	53.220605
487.500000	53.308566
486.000000	53.369711
484.500000	53.430662
483.000000	53.504973
481.500000	53.581657
480.000000	53.520872
478.500000	53.195235
477.000000	52.913028
475.500000	52.750686
474.000000	52.603083
472.500000	52.443544
471.000000	52.310135
469.500000	52.099896
468.000000	51.892485
466.500000	51.711493
465.000000	51.520605
463.500000	51.370520
462.000000	51.230703
460.500000	51.135576
459.000000	51.112423
457.500000	51.151901
456.000000	51.153360
454.500000	51.196112
453.000000	51.225585
451.500000	51.275189
450.000000	51.328296
448.500000	51.392876
447.000000	51.400922
445.500000	51.442413
444.000000	51.661508
442.500000	51.701221
441.000000	51.606640
439.500000	51.514904
438.000000	51.454031
436.500000	51.350951
435.000000	51.314981
433.500000	51.222035
432.000000	51.155926
430.500000	51.111628
429.000000	51.029603
427.500000	50.907527
426.000000	50.876042
424.500000	50.817752
423.000000	50.692370
421.500000	50.641785
420.000000	50.585254
418.500000	50.488339
417.000000	50.408978
415.500000	50.341232
414.000000	50.255540
412.500000	50.222086
411.000000	50.146338
409.500000	50.027940
408.000000	49.889311
406.500000	49.897963
405.000000	49.834287
403.500000	49.731066
402.000000	49.665244
400.500000	49.595518
399.000000	49.552287
397.500000	49.432541
396.000000	49.294208
394.500000	49.300732
393.000000	49.188483
391.500000	49.126583
390.000000	49.022011
388.500000	48.912363
387.000000	48.905083
385.500000	48.681811
384.000000	48.544953
382.500000	48.399069
381.000000	48.249926
379.500000	47.999971
378.000000	47.920260
376.500000	48.191054
375.000000	48.415170
373.500000	47.616164
372.000000	47.010612
370.500000	46.130731
369.000000	45.058501
367.500000	43.910502
366.000000	42.385675
364.500000	40.921178
363.000000	38.841364
361.500000	36.405708
360.000000	33.680902
358.500000	30.403183
357.000000	26.708198
355.500000	22.814253
354.000000	18.743743
352.500000	14.682030
351.000000	10.938000
349.500000	7.680066
348.000000	5.035153
346.500000	3.102774
345.000000	1.779470
343.500000	0.972044
342.000000	0.469663
340.500000	0.207836
339.000000	0.076192
337.500000	0.016534
336.000000	-0.013011
334.500000	-0.020683
333.000000	-0.012284
331.500000	-0.012657
330.000000	-0.011209
328.500000	-0.003826
327.000000	-0.015575
325.500000	-0.008489
324.000000	-0.008409
322.500000	-0.016079
321.000000	-0.025176
319.500000	-0.012816
318.000000	0.004426
316.500000	-0.027462
315.000000	-0.033250
313.500000	-0.034815
312.000000	-0.026015
310.500000	-0.019248
309.000000	-0.026468
307.500000	-0.014852
306.000000	-0.016036
304.500000	-0.013576
303.000000	-0.011600
301.500000	-0.013328
300.000000	-0.012292
