PE UV       SUBTECH     SPECTRUM    ASCII       PEDS        4.00        
   -1
Sample317.Sample.Processed.asc
21/03/25
15:27:10.00
21/03/25
15:27:10.00
Administrator

300.000000
1
Lambda 850
850L1710193
PerkinElmer UV WinLab 6.4.0.973 / 2.02.06 Lambda 800 UV/VIS, Jan 28 2016 16:58:34

0
0
2
0
0
UV/VIS
1
1
1
RBeamAtt,SBeamAtt,60mm sphere
0
0
0
0
Fix
 
0
0.2
0
0
0
 
 
 
0
 
0
340
0
Front
100
 
S:100 R:100
 
0
0
0
 
0
 
 
 
0
 
 
0
0
0
0
0
 
 
 
 
0
0


0
0
#HDR
-1
-1
#GR
nm
%T
1.0
0.0
750.000000
-1.500000
301
8
70.864128
-0.048763
#DATA
750.000000	70.664378
748.500000	70.815666
747.000000	70.786721
745.500000	70.864128
744.000000	70.706947
742.500000	70.624625
741.000000	70.744004
739.500000	70.571032
738.000000	70.694763
736.500000	70.683859
735.000000	70.617061
733.500000	70.577413
732.000000	70.557095
730.500000	70.481209
729.000000	70.443886
727.500000	70.515063
726.000000	70.497407
724.500000	70.414124
723.000000	70.421621
721.500000	70.462912
720.000000	70.362373
718.500000	70.364844
717.000000	70.323991
715.500000	70.257456
714.000000	70.272548
712.500000	70.182926
711.000000	70.164731
709.500000	70.220557
708.000000	70.115604
706.500000	70.136356
705.000000	70.185479
703.500000	70.033514
702.000000	70.064379
700.500000	70.054959
699.000000	70.026425
697.500000	70.080433
696.000000	70.082432
694.500000	70.033190
693.000000	69.948269
691.500000	69.791370
690.000000	69.714811
688.500000	69.867997
687.000000	69.844906
685.500000	69.838383
684.000000	69.829574
682.500000	69.707954
681.000000	69.627025
679.500000	69.714118
678.000000	69.581489
676.500000	69.448625
675.000000	69.483387
673.500000	69.499052
672.000000	69.436779
670.500000	69.417049
669.000000	69.354166
667.500000	69.253067
666.000000	69.169700
664.500000	69.178877
663.000000	69.088263
661.500000	69.060366
660.000000	69.030780
658.500000	68.824111
657.000000	68.801392
655.500000	68.746776
654.000000	68.682771
652.500000	68.519128
651.000000	68.451031
649.500000	68.345692
648.000000	68.222720
646.500000	68.243342
645.000000	68.145766
643.500000	68.081574
642.000000	67.976996
640.500000	67.891146
639.000000	67.785055
637.500000	67.717977
636.000000	67.619180
634.500000	67.508749
633.000000	67.406233
631.500000	67.333779
630.000000	67.207779
628.500000	67.060723
627.000000	66.959320
625.500000	66.859731
624.000000	66.756448
622.500000	66.631144
621.000000	66.571291
619.500000	66.438035
618.000000	66.298937
616.500000	66.170567
615.000000	66.069935
613.500000	65.978650
612.000000	65.872374
610.500000	65.736517
609.000000	65.603750
607.500000	65.478221
606.000000	65.368883
604.500000	65.295241
603.000000	65.159757
601.500000	65.006832
600.000000	64.887888
598.500000	64.808986
597.000000	64.633640
595.500000	64.519751
594.000000	64.448703
592.500000	64.314048
591.000000	64.193026
589.500000	64.084079
588.000000	63.936626
586.500000	63.766092
585.000000	63.707138
583.500000	63.617760
582.000000	63.473898
580.500000	63.348390
579.000000	63.211015
577.500000	63.071397
576.000000	62.974356
574.500000	62.849075
573.000000	62.716020
571.500000	62.588916
570.000000	62.447983
568.500000	62.315768
567.000000	62.171647
565.500000	62.034002
564.000000	61.930723
562.500000	61.816449
561.000000	61.828327
559.500000	61.864563
558.000000	61.724711
556.500000	61.604791
555.000000	61.499854
553.500000	61.363813
552.000000	61.260692
550.500000	61.142367
549.000000	61.017001
547.500000	60.924845
546.000000	60.828935
544.500000	60.716244
543.000000	60.622291
541.500000	60.557806
540.000000	60.446461
538.500000	60.324842
537.000000	60.250481
535.500000	60.171553
534.000000	60.063448
532.500000	59.984716
531.000000	59.903579
529.500000	59.790586
528.000000	59.702184
526.500000	59.617498
525.000000	59.491083
523.500000	59.389164
522.000000	59.268662
520.500000	59.139982
519.000000	59.024031
517.500000	58.872687
516.000000	58.719743
514.500000	58.539071
513.000000	58.331342
511.500000	58.112149
510.000000	57.894041
508.500000	57.703812
507.000000	57.514482
505.500000	57.407568
504.000000	57.349307
502.500000	57.324874
501.000000	57.342697
499.500000	57.422485
498.000000	57.539994
496.500000	57.699188
495.000000	57.839859
493.500000	57.966646
492.000000	58.119058
490.500000	58.248404
489.000000	58.352112
487.500000	58.444410
486.000000	58.530617
484.500000	58.614875
483.000000	58.740409
481.500000	58.902780
480.000000	58.837298
478.500000	58.550139
477.000000	58.280784
475.500000	58.112691
474.000000	57.959917
472.500000	57.804792
471.000000	57.666798
469.500000	57.480760
468.000000	57.270577
466.500000	57.034664
465.000000	56.842639
463.500000	56.667789
462.000000	56.519961
460.500000	56.398213
459.000000	56.336614
457.500000	56.363556
456.000000	56.348958
454.500000	56.365661
453.000000	56.441367
451.500000	56.449465
450.000000	56.547843
448.500000	56.575218
447.000000	56.583843
445.500000	56.669877
444.000000	56.870078
442.500000	56.911588
441.000000	56.855495
439.500000	56.753620
438.000000	56.691739
436.500000	56.595083
435.000000	56.521124
433.500000	56.514389
432.000000	56.444470
430.500000	56.349831
429.000000	56.342736
427.500000	56.246197
426.000000	56.142258
424.500000	56.022283
423.000000	55.973733
421.500000	55.917114
420.000000	55.826792
418.500000	55.793826
417.000000	55.683336
415.500000	55.576458
414.000000	55.538465
412.500000	55.532524
411.000000	55.373384
409.500000	55.295009
408.000000	55.189321
406.500000	55.173222
405.000000	55.081299
403.500000	54.914671
402.000000	54.909812
400.500000	54.800206
399.000000	54.757439
397.500000	54.686390
396.000000	54.559288
394.500000	54.461384
393.000000	54.368325
391.500000	54.308265
390.000000	54.239559
388.500000	53.990918
387.000000	53.961626
385.500000	53.744324
384.000000	53.570451
382.500000	53.358814
381.000000	53.216413
379.500000	52.941611
378.000000	52.766775
376.500000	53.034333
375.000000	53.142839
373.500000	52.424567
372.000000	51.582838
370.500000	50.625239
369.000000	49.486344
367.500000	48.138760
366.000000	46.518117
364.500000	44.750112
363.000000	42.486167
361.500000	39.815857
360.000000	36.654429
358.500000	33.179357
357.000000	29.124527
355.500000	24.800063
354.000000	20.208672
352.500000	15.803827
351.000000	11.734047
349.500000	8.172059
348.000000	5.328959
346.500000	3.266044
345.000000	1.862340
343.500000	0.997945
342.000000	0.503428
340.500000	0.226537
339.000000	0.036052
337.500000	-0.026380
336.000000	-0.032807
334.500000	-0.038758
333.000000	-0.048763
331.500000	-0.045046
330.000000	-0.042316
328.500000	-0.039562
327.000000	-0.040290
325.500000	-0.038995
324.000000	-0.034944
322.500000	-0.039636
321.000000	-0.033787
319.500000	-0.030216
318.000000	-0.010925
316.500000	-0.042227
315.000000	-0.038148
313.500000	-0.040366
312.000000	-0.037231
310.500000	-0.032174
309.000000	-0.030438
307.500000	-0.018730
306.000000	-0.011956
304.500000	-0.011298
303.000000	-0.013502
301.500000	-0.021420
300.000000	-0.023346
