PE UV       SUBTECH     SPECTRUM    ASCII       PEDS        4.00        
   -1
Sample271.Sample.Raw.asc
21/02/11
11:54:00.00
21/02/11
11:54:00.00
Administrator

300.000000
1
Lambda 850
850L1710193
PerkinElmer UV WinLab 6.4.0.973 / 2.02.06 Lambda 800 UV/VIS, Jan 28 2016 16:58:34

0
0
2
0
0
UV/VIS
1
1
1
RBeamAtt,SBeamAtt,60mm sphere
0
0
0
0
Fix
 
0
0.2
0
0
0
 
 
 
0
 
0
319.2
0
Front
100
 
S:100 R:100
 
0
0
0
 
0
 
 
 
0
 
 
0
0
0
0
0
 
 
 
 
0
0


0
0
#HDR
-1
-1
#GR
nm
%T
1.0
0.0
750.000000
-1.500000
301
8
72.628490
-0.031493
#DATA
750.000000	72.344922
748.500000	72.628490
747.000000	72.403145
745.500000	72.504215
744.000000	72.460941
742.500000	72.595041
741.000000	72.389154
739.500000	72.468888
738.000000	72.331183
736.500000	72.428568
735.000000	72.377183
733.500000	72.303371
732.000000	72.298981
730.500000	72.198539
729.000000	72.307210
727.500000	72.261703
726.000000	72.152318
724.500000	72.194620
723.000000	72.180900
721.500000	72.174105
720.000000	72.018331
718.500000	72.077823
717.000000	71.871468
715.500000	71.970191
714.000000	71.921734
712.500000	71.928909
711.000000	71.956085
709.500000	71.917107
708.000000	71.961846
706.500000	71.864539
705.000000	71.848485
703.500000	71.842081
702.000000	71.811410
700.500000	71.800351
699.000000	71.797241
697.500000	71.729729
696.000000	71.679094
694.500000	71.687437
693.000000	71.616193
691.500000	71.520704
690.000000	71.424425
688.500000	71.460441
687.000000	71.519235
685.500000	71.447865
684.000000	71.369143
682.500000	71.357143
681.000000	71.323300
679.500000	71.259133
678.000000	71.261549
676.500000	71.154310
675.000000	71.181748
673.500000	71.253886
672.000000	71.092771
670.500000	71.048872
669.000000	70.941421
667.500000	70.903743
666.000000	70.811463
664.500000	70.816690
663.000000	70.747050
661.500000	70.624659
660.000000	70.607608
658.500000	70.510415
657.000000	70.487802
655.500000	70.343741
654.000000	70.335080
652.500000	70.239349
651.000000	70.111827
649.500000	70.061084
648.000000	69.982738
646.500000	69.845454
645.000000	69.737289
643.500000	69.674570
642.000000	69.591813
640.500000	69.457103
639.000000	69.426439
637.500000	69.341976
636.000000	69.220445
634.500000	69.153186
633.000000	69.064003
631.500000	68.958632
630.000000	68.828378
628.500000	68.640498
627.000000	68.546891
625.500000	68.482029
624.000000	68.387510
622.500000	68.210035
621.000000	68.075134
619.500000	67.964535
618.000000	67.904205
616.500000	67.836272
615.000000	67.711679
613.500000	67.595813
612.000000	67.480112
610.500000	67.340017
609.000000	67.248189
607.500000	67.108756
606.000000	66.997553
604.500000	66.858281
603.000000	66.752571
601.500000	66.649723
600.000000	66.532717
598.500000	66.435639
597.000000	66.297874
595.500000	66.190667
594.000000	66.115410
592.500000	65.976766
591.000000	65.813792
589.500000	65.719982
588.000000	65.611835
586.500000	65.475520
585.000000	65.342456
583.500000	65.244534
582.000000	65.134044
580.500000	65.025569
579.000000	64.926973
577.500000	64.820460
576.000000	64.744607
574.500000	64.612932
573.000000	64.457689
571.500000	64.350176
570.000000	64.269866
568.500000	64.169426
567.000000	64.051108
565.500000	63.893141
564.000000	63.769893
562.500000	63.690421
561.000000	63.739392
559.500000	63.790250
558.000000	63.677373
556.500000	63.574879
555.000000	63.505020
553.500000	63.435555
552.000000	63.350623
550.500000	63.278336
549.000000	63.174112
547.500000	63.099709
546.000000	63.037380
544.500000	62.967389
543.000000	62.918274
541.500000	62.838997
540.000000	62.774380
538.500000	62.735933
537.000000	62.703312
535.500000	62.667862
534.000000	62.600418
532.500000	62.545516
531.000000	62.503075
529.500000	62.460413
528.000000	62.398051
526.500000	62.365021
525.000000	62.317226
523.500000	62.220748
522.000000	62.118748
520.500000	62.014946
519.000000	61.899042
517.500000	61.742734
516.000000	61.531370
514.500000	61.322967
513.000000	61.065285
511.500000	60.801572
510.000000	60.527792
508.500000	60.232444
507.000000	59.972946
505.500000	59.709493
504.000000	59.426403
502.500000	59.188131
501.000000	59.032659
499.500000	58.888922
498.000000	58.781594
496.500000	58.678112
495.000000	58.601438
493.500000	58.544131
492.000000	58.544444
490.500000	58.567008
489.000000	58.595492
487.500000	58.642404
486.000000	58.748559
484.500000	58.948742
483.000000	59.298077
481.500000	59.673963
480.000000	59.835954
478.500000	59.714876
477.000000	59.555439
475.500000	59.459788
474.000000	59.385786
472.500000	59.260984
471.000000	59.132059
469.500000	58.979401
468.000000	58.752560
466.500000	58.472116
465.000000	58.224542
463.500000	57.977188
462.000000	57.695670
460.500000	57.489501
459.000000	57.298424
457.500000	57.178108
456.000000	57.027237
454.500000	56.880969
453.000000	56.808917
451.500000	56.693681
450.000000	56.597927
448.500000	56.468570
447.000000	56.309588
445.500000	56.254603
444.000000	56.431614
442.500000	56.548936
441.000000	56.392639
439.500000	56.238113
438.000000	56.135818
436.500000	56.027151
435.000000	55.933601
433.500000	55.803599
432.000000	55.728773
430.500000	55.618947
429.000000	55.573606
427.500000	55.414537
426.000000	55.355163
424.500000	55.206501
423.000000	55.077494
421.500000	55.029525
420.000000	54.944827
418.500000	54.866963
417.000000	54.725830
415.500000	54.598262
414.000000	54.499488
412.500000	54.424728
411.000000	54.288203
409.500000	54.198740
408.000000	54.134903
406.500000	53.978605
405.000000	53.824141
403.500000	53.749507
402.000000	53.645297
400.500000	53.488720
399.000000	53.456990
397.500000	53.294452
396.000000	53.157902
394.500000	53.021280
393.000000	52.916734
391.500000	52.898597
390.000000	52.782153
388.500000	52.572751
387.000000	52.439394
385.500000	52.377518
384.000000	52.133385
382.500000	51.986890
381.000000	51.861018
379.500000	51.544163
378.000000	51.415962
376.500000	51.959898
375.000000	52.064353
373.500000	51.523581
372.000000	50.681047
370.500000	49.978082
369.000000	49.276507
367.500000	48.267018
366.000000	47.267812
364.500000	45.900943
363.000000	44.465636
361.500000	42.610141
360.000000	40.418998
358.500000	37.837694
357.000000	34.905477
355.500000	31.467993
354.000000	27.694714
352.500000	23.641788
351.000000	19.470639
349.500000	15.326142
348.000000	11.507225
346.500000	8.042848
345.000000	5.173454
343.500000	3.023520
342.000000	1.573967
340.500000	0.702636
339.000000	0.278386
337.500000	0.107059
336.000000	0.045563
334.500000	0.036587
333.000000	0.036524
331.500000	0.046697
330.000000	0.045332
328.500000	0.047474
327.000000	0.039547
325.500000	0.040597
324.000000	0.038144
322.500000	0.041084
321.000000	0.048409
319.500000	0.047301
318.000000	0.000661
316.500000	-0.021576
315.000000	-0.031493
313.500000	-0.030389
312.000000	-0.030398
310.500000	-0.028733
309.000000	-0.022155
307.500000	-0.013951
306.000000	-0.007983
304.500000	-0.004665
303.000000	-0.009238
301.500000	-0.015350
300.000000	-0.015462
