PE UV       SUBTECH     SPECTRUM    ASCII       PEDS        4.00        
   -1
Sample171.Sample.Raw.asc
21/01/27
14:37:33.00
21/01/27
14:37:33.00
Administrator

300.000000
1
Lambda 850
850L1710193
PerkinElmer UV WinLab 6.4.0.973 / 2.02.06 Lambda 800 UV/VIS, Jan 28 2016 16:58:34

0
0
2
0
0
UV/VIS
1
1
1
RBeamAtt,SBeamAtt,60mm sphere
0
0
0
0
Fix
 
0
0.2
0
0
0
 
 
 
0
 
0
319.2
0
Front
100
 
S:100 R:100
 
0
0
0
 
0
 
 
 
0
 
 
0
0
0
0
0
 
 
 
 
0
0


0
0
#HDR
-1
-1
#GR
nm
%T
1.0
0.0
750.000000
-1.500000
301
8
73.426966
-0.031007
#DATA
750.000000	73.232247
748.500000	73.320726
747.000000	73.341101
745.500000	73.368694
744.000000	73.426966
742.500000	73.286373
741.000000	73.267219
739.500000	73.327923
738.000000	73.333906
736.500000	73.280078
735.000000	73.353206
733.500000	73.206514
732.000000	73.145625
730.500000	73.020141
729.000000	73.038199
727.500000	73.163007
726.000000	73.036894
724.500000	73.182185
723.000000	73.013747
721.500000	72.982862
720.000000	72.891555
718.500000	72.958295
717.000000	72.958863
715.500000	72.919977
714.000000	72.835552
712.500000	72.849180
711.000000	72.876706
709.500000	72.753932
708.000000	72.829535
706.500000	72.765069
705.000000	72.809803
703.500000	72.750694
702.000000	72.823426
700.500000	72.631141
699.000000	72.760523
697.500000	72.678325
696.000000	72.622067
694.500000	72.637375
693.000000	72.666667
691.500000	72.514661
690.000000	72.409980
688.500000	72.519240
687.000000	72.459726
685.500000	72.444873
684.000000	72.434853
682.500000	72.369560
681.000000	72.332845
679.500000	72.286597
678.000000	72.315202
676.500000	72.286876
675.000000	72.245914
673.500000	72.235099
672.000000	72.225265
670.500000	72.170163
669.000000	72.145098
667.500000	71.999132
666.000000	71.952117
664.500000	71.917960
663.000000	71.830840
661.500000	71.777820
660.000000	71.841115
658.500000	71.764551
657.000000	71.683924
655.500000	71.560393
654.000000	71.484481
652.500000	71.430499
651.000000	71.440185
649.500000	71.346967
648.000000	71.403816
646.500000	71.279892
645.000000	71.254309
643.500000	71.213568
642.000000	71.110181
640.500000	71.007378
639.000000	70.958020
637.500000	70.935167
636.000000	70.845924
634.500000	70.794820
633.000000	70.731416
631.500000	70.627422
630.000000	70.592726
628.500000	70.519296
627.000000	70.410946
625.500000	70.378023
624.000000	70.323927
622.500000	70.249340
621.000000	70.190073
619.500000	70.070273
618.000000	69.945672
616.500000	69.883384
615.000000	69.835975
613.500000	69.736687
612.000000	69.634264
610.500000	69.556097
609.000000	69.474170
607.500000	69.351211
606.000000	69.276869
604.500000	69.199945
603.000000	69.125348
601.500000	69.071954
600.000000	68.968745
598.500000	68.842619
597.000000	68.737598
595.500000	68.654169
594.000000	68.563467
592.500000	68.428374
591.000000	68.337177
589.500000	68.283300
588.000000	68.200960
586.500000	68.100336
585.000000	68.009935
583.500000	67.893128
582.000000	67.767226
580.500000	67.691631
579.000000	67.625347
577.500000	67.519852
576.000000	67.427427
574.500000	67.314428
573.000000	67.233210
571.500000	67.153374
570.000000	67.023357
568.500000	66.886248
567.000000	66.762504
565.500000	66.644916
564.000000	66.554192
562.500000	66.449057
561.000000	66.444939
559.500000	66.502480
558.000000	66.427391
556.500000	66.313099
555.000000	66.215717
553.500000	66.148011
552.000000	66.077043
550.500000	65.960628
549.000000	65.843556
547.500000	65.749781
546.000000	65.678059
544.500000	65.598809
543.000000	65.491490
541.500000	65.404016
540.000000	65.304888
538.500000	65.197536
537.000000	65.132495
535.500000	65.083442
534.000000	64.992047
532.500000	64.868173
531.000000	64.797840
529.500000	64.745262
528.000000	64.646337
526.500000	64.537498
525.000000	64.424146
523.500000	64.322551
522.000000	64.214785
520.500000	64.085682
519.000000	63.940815
517.500000	63.763567
516.000000	63.574331
514.500000	63.390717
513.000000	63.156035
511.500000	62.885017
510.000000	62.656097
508.500000	62.458628
507.000000	62.212269
505.500000	62.043505
504.000000	61.924270
502.500000	61.840037
501.000000	61.837031
499.500000	61.893988
498.000000	61.939862
496.500000	62.041440
495.000000	62.160010
493.500000	62.318174
492.000000	62.432556
490.500000	62.540660
489.000000	62.641143
487.500000	62.697294
486.000000	62.743435
484.500000	62.842111
483.000000	63.038724
481.500000	63.204583
480.000000	63.203341
478.500000	62.866940
477.000000	62.567112
475.500000	62.369480
474.000000	62.208367
472.500000	62.029081
471.000000	61.847217
469.500000	61.602654
468.000000	61.374555
466.500000	61.128704
465.000000	60.873944
463.500000	60.618633
462.000000	60.429035
460.500000	60.270541
459.000000	60.241207
457.500000	60.161912
456.000000	60.120224
454.500000	60.167143
453.000000	60.176885
451.500000	60.165344
450.000000	60.188674
448.500000	60.146873
447.000000	60.174290
445.500000	60.123870
444.000000	60.312569
442.500000	60.453897
441.000000	60.283657
439.500000	60.175808
438.000000	60.073491
436.500000	59.976683
435.000000	59.893659
433.500000	59.790249
432.000000	59.689764
430.500000	59.658160
429.000000	59.590498
427.500000	59.488523
426.000000	59.349690
424.500000	59.263485
423.000000	59.216590
421.500000	59.100740
420.000000	59.013370
418.500000	58.960275
417.000000	58.875970
415.500000	58.746420
414.000000	58.584147
412.500000	58.555118
411.000000	58.402369
409.500000	58.374437
408.000000	58.158358
406.500000	58.068186
405.000000	58.019486
403.500000	57.875543
402.000000	57.751742
400.500000	57.624905
399.000000	57.562640
397.500000	57.434072
396.000000	57.282789
394.500000	57.160626
393.000000	57.042811
391.500000	56.888338
390.000000	56.681672
388.500000	56.571782
387.000000	56.422946
385.500000	56.308316
384.000000	56.011198
382.500000	55.716979
381.000000	55.567864
379.500000	55.257515
378.000000	54.883199
376.500000	55.441478
375.000000	55.294128
373.500000	54.471987
372.000000	53.606882
370.500000	52.541075
369.000000	51.349218
367.500000	50.011694
366.000000	48.269346
364.500000	46.355586
363.000000	44.022355
361.500000	41.311989
360.000000	38.131030
358.500000	34.430051
357.000000	30.399629
355.500000	26.009932
354.000000	21.423985
352.500000	16.841865
351.000000	12.633758
349.500000	8.947704
348.000000	5.939528
346.500000	3.710029
345.000000	2.160226
343.500000	1.187310
342.000000	0.602998
340.500000	0.279680
339.000000	0.123534
337.500000	0.063493
336.000000	0.038649
334.500000	0.039096
333.000000	0.042659
331.500000	0.045549
330.000000	0.045273
328.500000	0.050336
327.000000	0.044081
325.500000	0.048324
324.000000	0.051898
322.500000	0.052542
321.000000	0.044380
319.500000	0.040080
318.000000	0.004146
316.500000	-0.022280
315.000000	-0.022378
313.500000	-0.026085
312.000000	-0.031007
310.500000	-0.023406
309.000000	-0.020407
307.500000	-0.020287
306.000000	-0.006742
304.500000	-0.002760
303.000000	-0.004760
301.500000	-0.007436
300.000000	-0.010100
