PE UV       SUBTECH     SPECTRUM    ASCII       PEDS        4.00        
   -1
Sample243.Sample.Raw.asc
21/02/10
10:45:19.00
21/02/10
10:45:19.00
Administrator

300.000000
1
Lambda 850
850L1710193
PerkinElmer UV WinLab 6.4.0.973 / 2.02.06 Lambda 800 UV/VIS, Jan 28 2016 16:58:34

0
0
2
0
0
UV/VIS
1
1
1
RBeamAtt,SBeamAtt,60mm sphere
0
0
0
0
Fix
 
0
0.2
0
0
0
 
 
 
0
 
0
319.2
0
Front
100
 
S:100 R:100
 
0
0
0
 
0
 
 
 
0
 
 
0
0
0
0
0
 
 
 
 
0
0


0
0
#HDR
-1
-1
#GR
nm
%T
1.0
0.0
750.000000
-1.500000
301
8
69.126228
-0.029229
#DATA
750.000000	69.007797
748.500000	69.107321
747.000000	69.073608
745.500000	69.126228
744.000000	69.090115
742.500000	68.933099
741.000000	68.760635
739.500000	68.802798
738.000000	68.865811
736.500000	68.578385
735.000000	68.800534
733.500000	68.757678
732.000000	68.715092
730.500000	68.695959
729.000000	68.610151
727.500000	68.581907
726.000000	68.525692
724.500000	68.367400
723.000000	68.377495
721.500000	68.356472
720.000000	68.400239
718.500000	68.332557
717.000000	68.305960
715.500000	68.308540
714.000000	68.241419
712.500000	68.212990
711.000000	68.180578
709.500000	68.148462
708.000000	68.012898
706.500000	68.052029
705.000000	68.043131
703.500000	68.107646
702.000000	67.983201
700.500000	68.066066
699.000000	67.943836
697.500000	67.872951
696.000000	67.822198
694.500000	67.863003
693.000000	67.777196
691.500000	67.660124
690.000000	67.541343
688.500000	67.736406
687.000000	67.640873
685.500000	67.597051
684.000000	67.551935
682.500000	67.465148
681.000000	67.388548
679.500000	67.388154
678.000000	67.269357
676.500000	67.128544
675.000000	67.112407
673.500000	67.028478
672.000000	66.945238
670.500000	66.904877
669.000000	66.779268
667.500000	66.722946
666.000000	66.571060
664.500000	66.548121
663.000000	66.413885
661.500000	66.178916
660.000000	66.132253
658.500000	66.104410
657.000000	65.867925
655.500000	65.763506
654.000000	65.631250
652.500000	65.530722
651.000000	65.342270
649.500000	65.256909
648.000000	65.101490
646.500000	64.918804
645.000000	64.814673
643.500000	64.717406
642.000000	64.560117
640.500000	64.326784
639.000000	64.155843
637.500000	64.040696
636.000000	63.814966
634.500000	63.647049
633.000000	63.497671
631.500000	63.358081
630.000000	63.167979
628.500000	63.016412
627.000000	62.838146
625.500000	62.689936
624.000000	62.521185
622.500000	62.325350
621.000000	62.181361
619.500000	61.982745
618.000000	61.751284
616.500000	61.587953
615.000000	61.355988
613.500000	61.149691
612.000000	60.996084
610.500000	60.793034
609.000000	60.617593
607.500000	60.432120
606.000000	60.246342
604.500000	60.065243
603.000000	59.852723
601.500000	59.641821
600.000000	59.432267
598.500000	59.222183
597.000000	59.053870
595.500000	58.879984
594.000000	58.643559
592.500000	58.424706
591.000000	58.234450
589.500000	58.043677
588.000000	57.898059
586.500000	57.689692
585.000000	57.451624
583.500000	57.267277
582.000000	57.066055
580.500000	56.898001
579.000000	56.724070
577.500000	56.550811
576.000000	56.361893
574.500000	56.172031
573.000000	55.957688
571.500000	55.752990
570.000000	55.575733
568.500000	55.368276
567.000000	55.176259
565.500000	54.997566
564.000000	54.765347
562.500000	54.595026
561.000000	54.565625
559.500000	54.469396
558.000000	54.323273
556.500000	54.140408
555.000000	53.963745
553.500000	53.814502
552.000000	53.622205
550.500000	53.432185
549.000000	53.270024
547.500000	53.090233
546.000000	52.937599
544.500000	52.791214
543.000000	52.630759
541.500000	52.491428
540.000000	52.345747
538.500000	52.193617
537.000000	52.063368
535.500000	51.927935
534.000000	51.750821
532.500000	51.613758
531.000000	51.505727
529.500000	51.371920
528.000000	51.226281
526.500000	51.070563
525.000000	50.913576
523.500000	50.769659
522.000000	50.631162
520.500000	50.494944
519.000000	50.328861
517.500000	50.152944
516.000000	49.974461
514.500000	49.789679
513.000000	49.579720
511.500000	49.370071
510.000000	49.222062
508.500000	49.057960
507.000000	48.883393
505.500000	48.783111
504.000000	48.735795
502.500000	48.749164
501.000000	48.824308
499.500000	48.911443
498.000000	49.042801
496.500000	49.177928
495.000000	49.342705
493.500000	49.499416
492.000000	49.670490
490.500000	49.791337
489.000000	49.848381
487.500000	49.927046
486.000000	49.994904
484.500000	50.010993
483.000000	50.100081
481.500000	50.139801
480.000000	50.003652
478.500000	49.694559
477.000000	49.441087
475.500000	49.258364
474.000000	49.101114
472.500000	48.937729
471.000000	48.769911
469.500000	48.599430
468.000000	48.422198
466.500000	48.253097
465.000000	48.087399
463.500000	47.907059
462.000000	47.825924
460.500000	47.803840
459.000000	47.779066
457.500000	47.824191
456.000000	47.887380
454.500000	47.877590
453.000000	47.944501
451.500000	47.966076
450.000000	48.047259
448.500000	48.138196
447.000000	48.148673
445.500000	48.242317
444.000000	48.418564
442.500000	48.411322
441.000000	48.333017
439.500000	48.244265
438.000000	48.160908
436.500000	48.102313
435.000000	48.069301
433.500000	47.994632
432.000000	47.912829
430.500000	47.865469
429.000000	47.831711
427.500000	47.764065
426.000000	47.660007
424.500000	47.635964
423.000000	47.556795
421.500000	47.454040
420.000000	47.399141
418.500000	47.380633
417.000000	47.278023
415.500000	47.176735
414.000000	47.101687
412.500000	47.052416
411.000000	46.964106
409.500000	46.877663
408.000000	46.840723
406.500000	46.777292
405.000000	46.716536
403.500000	46.631969
402.000000	46.580927
400.500000	46.526118
399.000000	46.480187
397.500000	46.376847
396.000000	46.367811
394.500000	46.328810
393.000000	46.210787
391.500000	46.175503
390.000000	46.084919
388.500000	46.098893
387.000000	45.943149
385.500000	45.902165
384.000000	45.727261
382.500000	45.654585
381.000000	45.472152
379.500000	45.283916
378.000000	45.293104
376.500000	45.709221
375.000000	45.751304
373.500000	45.039534
372.000000	44.400095
370.500000	43.619674
369.000000	42.812020
367.500000	41.743803
366.000000	40.428746
364.500000	38.803002
363.000000	36.962539
361.500000	34.672301
360.000000	32.178576
358.500000	28.909407
357.000000	25.533878
355.500000	21.793544
354.000000	17.891600
352.500000	14.031142
351.000000	10.379603
349.500000	7.305708
348.000000	4.757324
346.500000	2.917136
345.000000	1.665150
343.500000	0.897795
342.000000	0.450511
340.500000	0.210266
339.000000	0.096203
337.500000	0.049459
336.000000	0.036190
334.500000	0.045530
333.000000	0.035880
331.500000	0.047024
330.000000	0.052439
328.500000	0.044340
327.000000	0.047992
325.500000	0.054915
324.000000	0.049967
322.500000	0.049280
321.000000	0.060930
319.500000	0.049978
318.000000	-0.001039
316.500000	-0.027453
315.000000	-0.028827
313.500000	-0.029229
312.000000	-0.026924
310.500000	-0.024988
309.000000	-0.021505
307.500000	-0.016615
306.000000	-0.008178
304.500000	-0.008290
303.000000	-0.012679
301.500000	-0.010695
300.000000	-0.011081
