PE UV       SUBTECH     SPECTRUM    ASCII       PEDS        4.00        
   -1
Sample245.Sample.Raw.asc
21/02/10
10:51:22.00
21/02/10
10:51:22.00
Administrator

300.000000
1
Lambda 850
850L1710193
PerkinElmer UV WinLab 6.4.0.973 / 2.02.06 Lambda 800 UV/VIS, Jan 28 2016 16:58:34

0
0
2
0
0
UV/VIS
1
1
1
RBeamAtt,SBeamAtt,60mm sphere
0
0
0
0
Fix
 
0
0.2
0
0
0
 
 
 
0
 
0
319.2
0
Front
100
 
S:100 R:100
 
0
0
0
 
0
 
 
 
0
 
 
0
0
0
0
0
 
 
 
 
0
0


0
0
#HDR
-1
-1
#GR
nm
%T
1.0
0.0
750.000000
-1.500000
301
8
69.196586
-0.030549
#DATA
750.000000	69.111536
748.500000	69.145030
747.000000	69.111032
745.500000	69.188821
744.000000	69.196586
742.500000	69.026601
741.000000	68.990834
739.500000	68.898227
738.000000	68.877755
736.500000	68.731918
735.000000	68.892567
733.500000	68.716971
732.000000	68.849924
730.500000	68.726171
729.000000	68.664843
727.500000	68.798136
726.000000	68.733727
724.500000	68.514890
723.000000	68.496991
721.500000	68.492728
720.000000	68.509602
718.500000	68.509806
717.000000	68.427859
715.500000	68.379281
714.000000	68.385450
712.500000	68.381498
711.000000	68.328490
709.500000	68.261510
708.000000	68.143938
706.500000	68.208516
705.000000	68.127491
703.500000	68.222267
702.000000	68.135527
700.500000	68.169587
699.000000	68.093348
697.500000	68.076111
696.000000	68.010379
694.500000	68.020693
693.000000	67.926868
691.500000	67.814539
690.000000	67.643907
688.500000	67.805035
687.000000	67.718069
685.500000	67.718709
684.000000	67.700133
682.500000	67.665913
681.000000	67.573883
679.500000	67.516773
678.000000	67.327835
676.500000	67.323636
675.000000	67.242253
673.500000	67.185257
672.000000	67.114473
670.500000	67.094061
669.000000	66.942077
667.500000	66.843355
666.000000	66.799807
664.500000	66.803219
663.000000	66.629118
661.500000	66.481720
660.000000	66.408958
658.500000	66.288253
657.000000	66.152352
655.500000	66.056356
654.000000	65.888310
652.500000	65.789144
651.000000	65.617537
649.500000	65.534376
648.000000	65.393016
646.500000	65.221784
645.000000	65.163202
643.500000	65.029150
642.000000	64.905136
640.500000	64.674450
639.000000	64.513718
637.500000	64.409336
636.000000	64.219638
634.500000	64.038747
633.000000	63.904052
631.500000	63.724293
630.000000	63.568520
628.500000	63.423019
627.000000	63.252614
625.500000	63.150358
624.000000	62.993045
622.500000	62.790255
621.000000	62.582559
619.500000	62.412248
618.000000	62.212605
616.500000	62.108195
615.000000	61.919521
613.500000	61.724959
612.000000	61.566130
610.500000	61.375383
609.000000	61.182301
607.500000	60.998970
606.000000	60.831140
604.500000	60.677586
603.000000	60.516719
601.500000	60.319649
600.000000	60.105190
598.500000	59.889172
597.000000	59.758551
595.500000	59.571886
594.000000	59.369387
592.500000	59.161619
591.000000	58.968930
589.500000	58.810913
588.000000	58.657025
586.500000	58.473980
585.000000	58.266185
583.500000	58.107165
582.000000	57.937904
580.500000	57.753714
579.000000	57.607117
577.500000	57.420410
576.000000	57.186680
574.500000	57.017207
573.000000	56.858138
571.500000	56.666324
570.000000	56.486107
568.500000	56.318031
567.000000	56.130387
565.500000	55.953591
564.000000	55.741547
562.500000	55.569602
561.000000	55.544121
559.500000	55.482485
558.000000	55.310600
556.500000	55.158366
555.000000	55.008658
553.500000	54.844347
552.000000	54.668198
550.500000	54.488146
549.000000	54.343564
547.500000	54.228605
546.000000	54.094711
544.500000	53.937538
543.000000	53.779022
541.500000	53.653661
540.000000	53.527030
538.500000	53.367043
537.000000	53.223438
535.500000	53.091331
534.000000	52.946171
532.500000	52.825061
531.000000	52.693790
529.500000	52.559462
528.000000	52.444109
526.500000	52.308553
525.000000	52.163077
523.500000	52.025855
522.000000	51.885778
520.500000	51.740305
519.000000	51.580573
517.500000	51.426812
516.000000	51.263331
514.500000	51.060559
513.000000	50.851007
511.500000	50.631586
510.000000	50.458440
508.500000	50.292100
507.000000	50.121637
505.500000	50.003190
504.000000	49.952972
502.500000	49.975588
501.000000	50.025087
499.500000	50.113854
498.000000	50.218358
496.500000	50.366316
495.000000	50.529128
493.500000	50.682350
492.000000	50.859359
490.500000	50.949298
489.000000	51.029477
487.500000	51.105908
486.000000	51.158062
484.500000	51.210204
483.000000	51.293102
481.500000	51.331111
480.000000	51.241437
478.500000	50.928067
477.000000	50.643733
475.500000	50.495709
474.000000	50.335040
472.500000	50.158501
471.000000	49.989324
469.500000	49.827786
468.000000	49.649201
466.500000	49.455204
465.000000	49.275476
463.500000	49.117342
462.000000	49.026125
460.500000	48.959239
459.000000	48.948924
457.500000	48.961862
456.000000	48.986611
454.500000	48.980095
453.000000	49.049530
451.500000	49.091414
450.000000	49.204690
448.500000	49.251598
447.000000	49.243079
445.500000	49.315048
444.000000	49.509395
442.500000	49.528883
441.000000	49.455266
439.500000	49.341146
438.000000	49.262551
436.500000	49.201835
435.000000	49.158558
433.500000	49.074205
432.000000	49.004241
430.500000	48.936262
429.000000	48.881168
427.500000	48.821382
426.000000	48.762669
424.500000	48.680751
423.000000	48.587668
421.500000	48.555564
420.000000	48.443016
418.500000	48.378471
417.000000	48.316304
415.500000	48.243436
414.000000	48.146856
412.500000	48.067518
411.000000	47.965854
409.500000	47.921907
408.000000	47.854710
406.500000	47.739524
405.000000	47.723546
403.500000	47.646817
402.000000	47.573043
400.500000	47.470108
399.000000	47.403653
397.500000	47.375544
396.000000	47.336507
394.500000	47.188332
393.000000	47.161223
391.500000	47.060029
390.000000	46.975256
388.500000	46.888698
387.000000	46.755595
385.500000	46.745480
384.000000	46.538193
382.500000	46.466042
381.000000	46.298783
379.500000	46.088868
378.000000	46.013891
376.500000	46.448663
375.000000	46.491227
373.500000	45.836253
372.000000	45.123006
370.500000	44.381878
369.000000	43.532588
367.500000	42.518033
366.000000	41.173518
364.500000	39.643314
363.000000	37.828715
361.500000	35.571461
360.000000	33.007644
358.500000	29.969342
357.000000	26.558724
355.500000	22.830616
354.000000	18.878064
352.500000	14.962815
351.000000	11.255702
349.500000	7.979526
348.000000	5.316078
346.500000	3.306241
345.000000	1.934799
343.500000	1.061570
342.000000	0.533722
340.500000	0.256517
339.000000	0.114329
337.500000	0.056989
336.000000	0.034702
334.500000	0.046089
333.000000	0.048182
331.500000	0.040785
330.000000	0.055331
328.500000	0.047980
327.000000	0.047711
325.500000	0.056783
324.000000	0.053055
322.500000	0.045438
321.000000	0.052975
319.500000	0.048294
318.000000	0.006898
316.500000	-0.021038
315.000000	-0.028262
313.500000	-0.030549
312.000000	-0.027208
310.500000	-0.026124
309.000000	-0.022831
307.500000	-0.015381
306.000000	-0.008653
304.500000	-0.005431
303.000000	-0.007722
301.500000	-0.012509
300.000000	-0.010030
